7530-216339
OS REV: 1.07 Sensor Cal: 1628751600 Averages: 30
Time (sec),  Bat (Volts),   T (deg C),  PAR (umol/(s m^2))  Ax (mg), Ay (mg), Az (mg)
1698242700, +3.49, +31.983,    +1.8, +1150.0,   +14.0,  +707.0
1698243300, +3.49, +31.960,    +1.9, +1144.0,   +14.0,  +704.0
1698243900, +3.49, +31.881,    +0.4, +1169.0,   +19.0,  +712.0
1698244500, +3.49, +31.786,    +1.8, +1169.0,   +20.0,  +711.0
1698245100, +3.50, +31.676,    +0.9, +1169.0,   +20.0,  +711.0
1698245700, +3.49, +31.557,    +1.5, +1184.0,   +24.0,  +711.0
1698246300, +3.49, +31.510,    +0.5, +1204.0,   +32.0,  +708.0
1698246900, +3.49, +31.494,    +0.7, +1212.0,   +38.0,  +706.0
1698247500, +3.50, +31.041,    +0.0, +1103.0,   +32.0,  +937.0
1698248100, +3.50, +29.803,    -0.0, +1015.0,   -24.0, +1043.0
1698248700, +3.50, +28.779,    -0.3, +1116.0,   +33.0,  +932.0
1698249300, +3.49, +28.000,    +0.4, +1120.0,   +36.0,  +942.0
1698249900, +3.49, +27.416,    -0.1, +1224.0,   +20.0,  +803.0
1698250500, +3.49, +26.880,    +0.1, +1401.0,   -50.0,  +134.0
1698251100, +3.49, +26.342,    +0.2,   +46.0,  -936.0,  -737.0
1698251700, +3.49, +26.300,    +0.2,   -92.0,  -495.0, +1377.0
1698252300, +3.49, +26.027,    -0.3,   -89.0,  -496.0, +1372.0
1698252900, +3.49, +25.811,    +0.3,  +800.0, -2048.0,  -257.0
1698253500, +3.49, +25.620,    +0.2,   -77.0,  -497.0, +1360.0
1698254100, +3.48, +25.346,    +0.1,   +24.0, -1112.0,  +979.0
