7530-458116
OS REV: 1.08 Sensor Cal: 1657263600 Averages: 30
Time (sec),  Bat (Volts),   T (deg C),  PAR (umol/(s m^2))  Ax (mg), Ay (mg), Az (mg)
1693403400, +3.44, +28.124,    -0.3, +1020.0,  +204.0,   +60.0
1693404000, +3.45, +28.115,    -0.3, +1024.0,  +207.0,   +56.0
1693404600, +3.45, +28.115,    -0.4, +1014.0,  +201.0,   +64.0
1693405200, +3.45, +28.091,    -0.3, +1024.0,  +206.0,   +56.0
1693405800, +3.46, +28.107,    -0.4, +1025.0,  +208.0,   +51.0
1693406400, +3.46, +28.107,    -0.4, +1016.0,  +204.0,   +64.0
1693407000, +3.46, +28.107,    -0.4, +1027.0,  +211.0,   +49.0
1693407600, +3.46, +28.107,    -0.4, +1014.0,  +200.0,   +64.0
1693408200, +3.46, +28.115,    -0.5, +1024.0,  +206.0,   +56.0
1693408800, +3.46, +28.115,    -0.4, +1016.0,  +204.0,   +62.0
1693409400, +3.47, +28.107,    -0.4, +1024.0,  +206.0,   +56.0
1693410000, +3.47, +28.107,    -0.4, +1022.0,  +206.0,   +56.0
1693410600, +3.47, +28.091,    -0.3, +1027.0,  +208.0,   +48.0
