7530-458116
OS REV: 1.08 Sensor Cal: 1657263600 Averages: 30
Time (sec),  Bat (Volts),   T (deg C),  PAR (umol/(s m^2))  Ax (mg), Ay (mg), Az (mg)
1691950080, +3.47, +28.452,    +3.0, +1055.0,  +230.0,   -12.0
1691950680, +3.47, +28.452,    +4.1, +1040.0,  +216.0,   +24.0
1691951280, +3.47, +28.452,    +5.0, +1047.0,  +224.0,   +14.0
1691951880, +3.47, +28.443,    +9.4, +1047.0,  +220.0,   +16.0
1691952480, +3.47, +28.443,    +6.2, +1030.0,  +208.0,   +51.0
1691953080, +3.47, +28.452,   +10.9, +1030.0,  +208.0,   +51.0
1691953680, +3.47, +28.443,    +6.2, +1024.0,  +207.0,   +52.0
1691954280, +3.47, +28.443,   +16.7, +1030.0,  +208.0,   +51.0
1691954880, +3.47, +28.443,   +11.8, +1027.0,  +208.0,   +48.0
1691955480, +3.47, +28.452,   +13.2, +1039.0,  +214.0,   +30.0
1691956080, +3.47, +28.452,   +15.1, +1027.0,  +207.0,   +49.0
1691956680, +3.47, +28.443,   +12.8, +1016.0,  +200.0,   +64.0
1691957280, +3.47, +28.443,   +24.9, +1025.0,  +208.0,   +56.0
1691957880, +3.47, +28.452,   +13.0, +1025.0,  +208.0,   +56.0
1691958480, +3.47, +28.452,   +23.2, +1030.0,  +208.0,   +48.0
1691959080, +3.47, +28.452,   +29.3, +1039.0,  +216.0,   +32.0
1691959680, +3.48, +28.452,   +24.3, +1036.0,  +209.0,   +40.0
1691960280, +3.48, +28.452,   +25.9, +1043.0,  +220.0,   +24.0
