7530-458116
OS REV: 1.08 Sensor Cal: 1657263600 Averages: 30
Time (sec),  Bat (Volts),   T (deg C),  PAR (umol/(s m^2))  Ax (mg), Ay (mg), Az (mg)
1695761460, +3.48, +27.992,   +57.2, +1039.0,  +216.0,   +32.0
1695762060, +3.48, +28.000,   +63.6, +1059.0,  +236.0,   -16.0
1695762660, +3.48, +28.009,   +71.6, +1095.0,  +262.0,  -128.0
1695763260, +3.48, +28.009,   +80.6, +1068.0,  +240.0,   -40.0
1695763860, +3.48, +28.009,   +90.2, +1095.0,  +262.0,  -128.0
1695764460, +3.48, +28.000,   +95.8, +1052.0,  +227.0,    +6.0
1695765060, +3.48, +28.009,  +109.7, +1081.0,  +256.0,   -93.0
1695765660, +3.48, +28.017,  +118.1, +1084.0,  +260.0,  -106.0
1695766260, +3.48, +28.000,  +120.0, +1036.0,  +216.0,   +40.0
1695766860, +3.48, +28.009,  +119.2, +1095.0,  +256.0,  -136.0
1695767460, +3.48, +28.009,  +124.8, +1024.0,  +208.0,   +56.0
