7530-458116
OS REV: 1.08 Sensor Cal: 1657263600 Averages: 30
Time (sec),  Bat (Volts),   T (deg C),  PAR (umol/(s m^2))  Ax (mg), Ay (mg), Az (mg)
1693206120, +3.46, +28.312,    -0.3, +1022.0,  +204.0,   +60.0
1693206720, +3.46, +28.304,    -0.3, +1016.0,  +200.0,   +60.0
1693207320, +3.46, +28.304,    -0.5, +1001.0,  +193.0,   +72.0
1693207920, +3.46, +28.296,    -0.4, +1006.0,  +195.0,   +71.0
1693208520, +3.47, +28.288,    -0.4, +1008.0,  +199.0,   +70.0
1693209120, +3.47, +28.296,    -0.3, +1011.0,  +198.0,   +67.0
1693209720, +3.47, +28.288,    -0.5, +1020.0,  +204.0,   +56.0
1693210320, +3.47, +28.288,    -0.4, +1006.0,  +198.0,   +70.0
1693210920, +3.47, +28.288,    -0.3, +1011.0,  +200.0,   +67.0
1693211520, +3.47, +28.296,    -0.4, +1011.0,  +199.0,   +65.0
