7530-458116
OS REV: 1.08 Sensor Cal: 1657263600 Averages: 30
Time (sec),  Bat (Volts),   T (deg C),  PAR (umol/(s m^2))  Ax (mg), Ay (mg), Az (mg)
1692376200, +3.45, +28.452,    -0.4, +1056.0,  +227.0,    +0.0
1692376800, +3.45, +28.443,    -0.4, +1048.0,  +220.0,   +14.0
1692377400, +3.45, +28.443,    -0.4, +1057.0,  +231.0,   -16.0
1692378000, +3.45, +28.443,    -0.3, +1052.0,  +224.0,    +7.0
1692378600, +3.46, +28.435,    -0.3, +1048.0,  +224.0,    +8.0
1692379200, +3.46, +28.427,    -0.4, +1052.0,  +224.0,    +8.0
1692379800, +3.46, +28.427,    -0.2, +1046.0,  +216.0,   +22.0
