7530-458116
OS REV: 1.08 Sensor Cal: 1657263600 Averages: 30
Time (sec),  Bat (Volts),   T (deg C),  PAR (umol/(s m^2))  Ax (mg), Ay (mg), Az (mg)
1701760740, +3.47, +28.681,    -0.4, +1052.0,  +176.0,   +86.0
1701761340, +3.47, +28.697,    -0.3, +1048.0,  +176.0,   +92.0
1701761940, +3.46, +28.689,    -0.3, +1054.0,  +176.0,   +88.0
1701762540, +3.46, +28.705,    -0.4, +1057.0,  +177.0,   +76.0
1701763140, +3.46, +28.730,    -0.4, +1063.0,  +184.0,   +67.0
1701763740, +3.46, +28.738,    -0.4, +1040.0,  +172.0,   +96.0
1701764340, +3.46, +28.754,    -0.4, +1048.0,  +176.0,   +92.0
1701764940, +3.46, +28.762,    -0.2, +1030.0,  +163.0,  +108.0
