7530-458116
OS REV: 1.08 Sensor Cal: 1657263600 Averages: 30
Time (sec),  Bat (Volts),   T (deg C),  PAR (umol/(s m^2))  Ax (mg), Ay (mg), Az (mg)
1698929400, +3.45, +28.361,    -0.4, +1049.0,  +176.0,   +80.0
1698930000, +3.45, +28.370,    -0.4, +1030.0,  +167.0,  +100.0
1698930600, +3.45, +28.361,    -0.2, +1040.0,  +169.0,   +92.0
1698931200, +3.46, +28.361,    -0.4, +1112.0,  +227.0,   -80.0
1698931800, +3.46, +28.361,    -0.4, +1068.0,  +187.0,   +52.0
1698932400, +3.46, +28.353,    -0.4, +1072.0,  +192.0,   +48.0
