7530-458116
OS REV: 1.08 Sensor Cal: 1657263600 Averages: 30
Time (sec),  Bat (Volts),   T (deg C),  PAR (umol/(s m^2))  Ax (mg), Ay (mg), Az (mg)
1700679720, +3.49, +28.312,   +10.2, +1073.0,  +192.0,   +44.0
1700680320, +3.49, +28.353,   +19.1, +1068.0,  +192.0,   +56.0
1700680920, +3.49, +28.402,   +20.9, +1126.0,  +224.0,  -108.0
1700681520, +3.49, +28.517,   +19.6, +1064.0,  +188.0,   +60.0
1700682120, +3.48, +28.591,   +23.4, +1065.0,  +184.0,   +60.0
1700682720, +3.48, +28.615,   +17.7, +1059.0,  +184.0,   +67.0
1700683320, +3.48, +28.632,   +25.1, +1064.0,  +182.0,   +64.0
1700683920, +3.48, +28.632,   +22.0, +1060.0,  +184.0,   +70.0
1700684520, +3.48, +28.632,   +24.9, +1048.0,  +174.0,   +92.0
1700685120, +3.48, +28.632,   +25.2, +1043.0,  +172.0,   +96.0
1700685720, +3.48, +28.640,   +25.9, +1118.0,  +227.0,   -93.0
1700686320, +3.48, +28.640,   +33.2, +1118.0,  +227.0,   -92.0
1700686920, +3.48, +28.632,   +40.9, +1048.0,  +174.0,   +92.0
1700687520, +3.48, +28.632,   +39.2, +1039.0,  +168.0,   +99.0
1700688120, +3.48, +28.640,   +48.1, +1041.0,  +168.0,   +96.0
1700688720, +3.48, +28.623,   +64.3, +1063.0,  +182.0,   +70.0
