7530-458116
OS REV: 1.08 Sensor Cal: 1657263600 Averages: 30
Time (sec),  Bat (Volts),   T (deg C),  PAR (umol/(s m^2))  Ax (mg), Ay (mg), Az (mg)
1698109260, +3.48, +28.386,  +123.8, +1120.0,  +206.0,   -90.0
1698109860, +3.48, +28.370,  +113.9, +1112.0,  +228.0,   -76.0
1698110460, +3.49, +28.370,  +109.6, +1072.0,  +192.0,   +46.0
1698111060, +3.49, +28.378,  +101.1, +1100.0,  +214.0,   -40.0
1698111660, +3.49, +28.370,  +112.0, +1063.0,  +184.0,   +64.0
1698112260, +3.49, +28.370,  +103.1, +1075.0,  +195.0,   +32.0
1698112860, +3.49, +28.386,   +88.9, +1110.0,  +227.0,   -80.0
1698113460, +3.49, +28.386,   +76.9, +1103.0,  +220.0,   -56.0
1698114060, +3.49, +28.386,   +30.9, +1112.0,  +225.0,   -88.0
1698114660, +3.49, +28.394,   +71.8, +1075.0,  +192.0,   +36.0
1698115260, +3.49, +28.394,   +66.4, +1112.0,  +227.0,   -90.0
