7530-458116
OS REV: 1.08 Sensor Cal: 1657263600 Averages: 30
Time (sec),  Bat (Volts),   T (deg C),  PAR (umol/(s m^2))  Ax (mg), Ay (mg), Az (mg)
1702548720, +3.47, +28.713,    -0.4, +1064.0,  +184.0,   +71.0
1702549320, +3.47, +28.697,    -0.3, +1081.0,  +195.0,   +36.0
1702549920, +3.47, +28.697,    -0.5, +1048.0,  +176.0,   +96.0
1702550520, +3.47, +28.689,    -0.3, +1075.0,  +192.0,   +48.0
1702551120, +3.47, +28.689,    -0.4, +1063.0,  +184.0,   +72.0
1702551720, +3.47, +28.689,    -0.4, +1060.0,  +182.0,   +76.0
1702552320, +3.47, +28.689,    -0.3, +1116.0,  +227.0,   -80.0
