7530-458116
OS REV: 1.08 Sensor Cal: 1657263600 Averages: 30
Time (sec),  Bat (Volts),   T (deg C),  PAR (umol/(s m^2))  Ax (mg), Ay (mg), Az (mg)
1695405480, +3.46, +28.115,    +4.7, +1054.0,  +230.0,    +0.0
1695406080, +3.46, +28.115,    +6.0, +1064.0,  +236.0,   -32.0
1695406680, +3.46, +28.099,    +9.5, +1031.0,  +214.0,   +44.0
1695407280, +3.47, +28.107,   +10.7, +1052.0,  +226.0,    +6.0
1695407880, +3.47, +28.107,   +13.2, +1046.0,  +224.0,   +16.0
1695408480, +3.47, +28.115,   +10.4, +1040.0,  +216.0,   +28.0
1695409080, +3.47, +28.107,   +13.2, +1044.0,  +220.0,   +18.0
1695409680, +3.47, +28.099,   +20.2, +1036.0,  +214.0,   +40.0
1695410280, +3.47, +28.091,   +19.9, +1031.0,  +211.0,   +46.0
1695410880, +3.47, +28.083,   +26.8, +1092.0,  +262.0,  -136.0
1695411480, +3.47, +28.091,   +26.8, +1032.0,  +216.0,   +40.0
1695412080, +3.47, +28.091,   +24.8, +1110.0,  +243.0,  -129.0
1695412680, +3.47, +28.074,   +24.4, +1059.0,  +232.0,   -16.0
1695413280, +3.47, +28.058,   +27.2, +1056.0,  +230.0,   -10.0
