7530-458116
OS REV: 1.08 Sensor Cal: 1657263600 Averages: 30
Time (sec),  Bat (Volts),   T (deg C),  PAR (umol/(s m^2))  Ax (mg), Ay (mg), Az (mg)
1693454160, +3.44, +28.181,   +17.5, +1038.0,  +216.0,   +36.0
1693454760, +3.44, +28.173,   +10.2, +1055.0,  +227.0,    +0.0
1693455360, +3.45, +28.181,    +6.4, +1046.0,  +220.0,   +16.0
1693455960, +3.45, +28.173,    +8.6, +1055.0,  +224.0,    +0.0
1693456560, +3.45, +28.165,    +5.3, +1049.0,  +224.0,    +8.0
1693457160, +3.45, +28.156,    +2.6, +1056.0,  +230.0,   -12.0
