7530-458116
OS REV: 1.08 Sensor Cal: 1657263600 Averages: 30
Time (sec),  Bat (Volts),   T (deg C),  PAR (umol/(s m^2))  Ax (mg), Ay (mg), Az (mg)
1692921720, +3.51, +28.361,  +119.7, +1052.0,  +227.0,    +0.0
1692922320, +3.51, +28.353,   +34.6, +1056.0,  +230.0,    -8.0
1692922920, +3.50, +28.337,   +18.3, +1055.0,  +228.0,   -10.0
1692923520, +3.50, +28.337,   +33.4, +1043.0,  +216.0,   +24.0
1692924120, +3.50, +28.329,   +35.2, +1040.0,  +220.0,   +28.0
1692924720, +3.50, +28.337,   +72.5, +1038.0,  +216.0,   +32.0
1692925320, +3.50, +28.337,   +96.7, +1048.0,  +220.0,   +12.0
