7530-458116
OS REV: 1.08 Sensor Cal: 1657263600 Averages: 30
Time (sec),  Bat (Volts),   T (deg C),  PAR (umol/(s m^2))  Ax (mg), Ay (mg), Az (mg)
1695351420, +3.45, +28.197,   +13.8, +1112.0,  +248.0,  -154.0
1695352020, +3.45, +28.189,   +13.1, +1014.0,  +200.0,   +62.0
1695352620, +3.45, +28.181,   +11.9, +1087.0,  +257.0,  -109.0
1695353220, +3.45, +28.181,   +13.3, +1040.0,  +216.0,   +32.0
1695353820, +3.45, +28.181,   +14.6, +1030.0,  +208.0,   +48.0
1695354420, +3.46, +28.181,   +14.1, +1022.0,  +208.0,   +54.0
1695355020, +3.46, +28.181,   +10.0, +1046.0,  +224.0,   +16.0
