7530-458116
OS REV: 1.08 Sensor Cal: 1657263600 Averages: 30
Time (sec),  Bat (Volts),   T (deg C),  PAR (umol/(s m^2))  Ax (mg), Ay (mg), Az (mg)
1695828720, +3.44, +28.066,    -0.5,  +988.0,  +192.0,   +71.0
1695829320, +3.44, +28.058,    -0.4, +1100.0,  +256.0,  -142.0
1695829920, +3.44, +28.066,    -0.4, +1025.0,  +211.0,   +51.0
1695830520, +3.45, +28.058,    -0.4, +1095.0,  +264.0,  -128.0
1695831120, +3.45, +28.058,    -0.5, +1095.0,  +262.0,  -128.0
1695831720, +3.45, +28.066,    -0.3, +1049.0,  +227.0,   +12.0
1695832320, +3.45, +28.066,    -0.4, +1097.0,  +259.0,  -141.0
1695832920, +3.45, +28.058,    -0.4, +1017.0,  +208.0,   +60.0
1695833520, +3.46, +28.066,    -0.3, +1097.0,  +248.0,  -136.0
1695834120, +3.46, +28.066,    -0.2, +1032.0,  +216.0,   +44.0
1695834720, +3.46, +28.074,    +0.5, +1096.0,  +259.0,  -136.0
1695835320, +3.46, +28.058,    +1.7, +1095.0,  +268.0,  -136.0
