7530-458116
OS REV: 1.08 Sensor Cal: 1657263600 Averages: 30
Time (sec),  Bat (Volts),   T (deg C),  PAR (umol/(s m^2))  Ax (mg), Ay (mg), Az (mg)
1699819980, +3.48, +28.607,   +58.6, +1068.0,  +184.0,   +56.0
1699820580, +3.48, +28.599,   +69.5, +1073.0,  +192.0,   +40.0
1699821180, +3.48, +28.558,   +71.4, +1047.0,  +172.0,   +96.0
1699821780, +3.48, +28.550,   +77.3, +1056.0,  +177.0,   +72.0
1699822380, +3.48, +28.550,   +84.2, +1056.0,  +176.0,   +79.0
1699822980, +3.48, +28.550,   +90.6, +1059.0,  +182.0,   +70.0
1699823580, +3.48, +28.542,   +95.4, +1052.0,  +176.0,   +86.0
1699824180, +3.48, +28.550,  +101.4, +1123.0,  +224.0,  -108.0
1699824780, +3.48, +28.542,  +111.4, +1043.0,  +172.0,   +96.0
1699825380, +3.48, +28.542,  +113.4, +1052.0,  +176.0,   +84.0
1699825980, +3.48, +28.525,  +116.8, +1048.0,  +176.0,   +92.0
1699826580, +3.48, +28.533,  +119.9, +1041.0,  +172.0,   +96.0
1699827180, +3.48, +28.542,  +127.4, +1038.0,  +168.0,   +96.0
1699827780, +3.48, +28.533,  +134.1, +1048.0,  +172.0,   +88.0
1699828380, +3.48, +28.542,  +136.0, +1048.0,  +174.0,   +86.0
1699828980, +3.48, +28.550,  +137.6, +1062.0,  +182.0,   +67.0
1699829580, +3.47, +28.550,  +142.4, +1078.0,  +195.0,   +35.0
1699830180, +3.47, +28.566,  +150.9, +1140.0,  +199.0,  -103.0
1699830780, +3.47, +28.574,  +146.6, +1136.0,  +200.0,   -98.0
