7530-458116
OS REV: 1.08 Sensor Cal: 1657263600 Averages: 30
Time (sec),  Bat (Volts),   T (deg C),  PAR (umol/(s m^2))  Ax (mg), Ay (mg), Az (mg)
1701725880, +3.47, +28.304,   +30.9, +1062.0,  +184.0,   +76.0
1701726480, +3.47, +28.329,  +123.2, +1059.0,  +184.0,   +72.0
1701727080, +3.47, +28.361,  +120.8, +1063.0,  +184.0,   +67.0
1701727680, +3.47, +28.361,  +129.5, +1048.0,  +172.0,   +96.0
1701728280, +3.47, +28.353,  +133.6, +1123.0,  +224.0,   -96.0
1701728880, +3.47, +28.329,  +138.4, +1120.0,  +198.0,   -72.0
1701729480, +3.47, +28.329,   +51.1, +1105.0,  +224.0,   -50.0
1701730080, +3.47, +28.337,  +136.1, +1113.0,  +224.0,   -64.0
1701730680, +3.48, +28.337,  +134.1, +1123.0,  +227.0,  -100.0
1701731280, +3.47, +28.345,  +137.6, +1048.0,  +176.0,   +96.0
1701731880, +3.47, +28.353,  +101.7, +1100.0,  +214.0,   -26.0
1701732480, +3.47, +28.353,   +47.8, +1118.0,  +227.0,   -90.0
1701733080, +3.47, +28.353,  +134.7, +1020.0,  +160.0,  +112.0
