7530-458116
OS REV: 1.08 Sensor Cal: 1657263600 Averages: 30
Time (sec),  Bat (Volts),   T (deg C),  PAR (umol/(s m^2))  Ax (mg), Ay (mg), Az (mg)
1695426600, +3.44, +28.148,   +39.8, +1031.0,  +216.0,   +46.0
1695427200, +3.44, +28.140,  +115.8, +1073.0,  +252.0,   -64.0
1695427800, +3.44, +28.148,   +49.8, +1017.0,  +207.0,   +62.0
1695428400, +3.45, +28.148,   +38.9, +1024.0,  +208.0,   +56.0
1695429000, +3.45, +28.140,  +147.2, +1036.0,  +216.0,   +35.0
1695429600, +3.45, +28.156,   +81.4, +1039.0,  +220.0,   +30.0
