7530-458116
OS REV: 1.08 Sensor Cal: 1657263600 Averages: 30
Time (sec),  Bat (Volts),   T (deg C),  PAR (umol/(s m^2))  Ax (mg), Ay (mg), Az (mg)
1699965300, +3.48, +28.476,    -0.4, +1080.0,  +198.0,   +24.0
1699965900, +3.47, +28.492,    -0.3, +1080.0,  +195.0,   +24.0
1699966500, +3.47, +28.517,    -0.4, +1142.0,  +206.0,  -104.0
1699967100, +3.47, +28.525,    -0.5, +1148.0,  +215.0,  -105.0
1699967700, +3.47, +28.533,    -0.3, +1144.0,  +208.0,  -105.0
1699968300, +3.47, +28.542,    -0.3, +1139.0,  +204.0,   -97.0
1699968900, +3.47, +28.550,    -0.4, +1136.0,  +200.0,   -97.0
1699969500, +3.47, +28.566,    -0.4, +1139.0,  +211.0,   -97.0
1699970100, +3.47, +28.566,    -0.3, +1075.0,  +192.0,   +40.0
1699970700, +3.47, +28.574,    -0.3, +1072.0,  +192.0,   +48.0
1699971300, +3.47, +28.566,    -0.3, +1068.0,  +192.0,   +56.0
1699971900, +3.47, +28.566,    -0.4, +1070.0,  +192.0,   +48.0
1699972500, +3.47, +28.574,    -0.4, +1139.0,  +207.0,  -103.0
1699973100, +3.47, +28.582,    -0.5, +1107.0,  +220.0,   -48.0
