7530-458116
OS REV: 1.08 Sensor Cal: 1657263600 Averages: 30
Time (sec),  Bat (Volts),   T (deg C),  PAR (umol/(s m^2))  Ax (mg), Ay (mg), Az (mg)
1692174420, +3.47, +28.460,    -0.4, +1055.0,  +224.0,    +0.0
1692175020, +3.47, +28.460,    -0.4, +1046.0,  +220.0,   +16.0
1692175620, +3.47, +28.460,    -0.5, +1048.0,  +224.0,   +12.0
1692176220, +3.47, +28.443,    -0.3, +1048.0,  +224.0,   +12.0
1692176820, +3.47, +28.452,    -0.4, +1043.0,  +224.0,   +12.0
1692177420, +3.47, +28.452,    -0.5, +1048.0,  +224.0,   +12.0
1692178020, +3.47, +28.468,    -0.5, +1052.0,  +227.0,    +0.0
1692178620, +3.47, +28.460,    -0.4, +1043.0,  +224.0,   +16.0
1692179220, +3.47, +28.468,    -0.3, +1043.0,  +220.0,   +24.0
1692179820, +3.47, +28.460,    -0.4, +1049.0,  +225.0,    +3.0
1692180420, +3.47, +28.468,    -0.3, +1043.0,  +220.0,   +24.0
