7530-458116
OS REV: 1.08 Sensor Cal: 1657263600 Averages: 30
Time (sec),  Bat (Volts),   T (deg C),  PAR (umol/(s m^2))  Ax (mg), Ay (mg), Az (mg)
1694870280, +3.48, +28.230,    -0.3, +1014.0,  +204.0,   +64.0
1694870880, +3.48, +28.222,    -0.5, +1028.0,  +208.0,   +51.0
1694871480, +3.48, +28.230,    -0.4, +1031.0,  +208.0,   +44.0
1694872080, +3.48, +28.222,    -0.3, +1036.0,  +214.0,   +39.0
1694872680, +3.48, +28.230,    -0.3, +1030.0,  +211.0,   +48.0
1694873280, +3.48, +28.238,    -0.3, +1032.0,  +211.0,   +44.0
1694873880, +3.48, +28.230,    -0.4, +1027.0,  +208.0,   +54.0
1694874480, +3.49, +28.238,    -0.4, +1057.0,  +232.0,   -16.0
1694875080, +3.49, +28.238,    -0.4, +1031.0,  +211.0,   +44.0
1694875680, +3.49, +28.247,    -0.3, +1031.0,  +214.0,   +44.0
1694876280, +3.49, +28.255,    -0.3, +1091.0,  +262.0,  -128.0
