7530-458116
OS REV: 1.08 Sensor Cal: 1657263600 Averages: 30
Time (sec),  Bat (Volts),   T (deg C),  PAR (umol/(s m^2))  Ax (mg), Ay (mg), Az (mg)
1696798740, +3.47, +28.124,   +65.8, +1062.0,  +185.0,   +56.0
1696799340, +3.47, +28.124,   +49.0, +1070.0,  +192.0,   +48.0
1696799940, +3.47, +28.115,   +76.9, +1112.0,  +227.0,   -88.0
1696800540, +3.47, +28.124,  +129.0, +1080.0,  +200.0,   +20.0
1696801140, +3.47, +28.124,   +55.4, +1072.0,  +193.0,   +36.0
1696801740, +3.47, +28.132,   +79.8, +1072.0,  +192.0,   +40.0
1696802340, +3.47, +28.124,   +78.4, +1017.0,  +160.0,   +99.0
1696802940, +3.47, +28.132,   +63.2, +1049.0,  +179.0,   +76.0
1696803540, +3.47, +28.107,   +75.0, +1027.0,  +167.0,   +97.0
1696804140, +3.48, +28.132,  +112.6, +1043.0,  +176.0,   +83.0
1696804740, +3.48, +28.124,   +92.9, +1007.0,  +160.0,   +99.0
1696805340, +3.48, +28.132,   +60.1, +1031.0,  +168.0,   +92.0
1696805940, +3.48, +28.132,  +150.1, +1011.0,  +163.0,   +99.0
1696806540, +3.48, +28.115,  +119.2, +1064.0,  +192.0,   +54.0
