7530-458116
OS REV: 1.08 Sensor Cal: 1657263600 Averages: 30
Time (sec),  Bat (Volts),   T (deg C),  PAR (umol/(s m^2))  Ax (mg), Ay (mg), Az (mg)
1691935140, +3.47, +28.476,    -0.3,  +979.0,  +188.0,   +76.0
1691935740, +3.47, +28.484,    -0.4, +1041.0,  +216.0,   +24.0
1691936340, +3.47, +28.484,    -0.3, +1057.0,  +230.0,   -16.0
1691936940, +3.47, +28.460,    -0.4, +1043.0,  +220.0,   +24.0
1691937540, +3.47, +28.452,    -0.5, +1041.0,  +216.0,   +24.0
1691938140, +3.47, +28.452,    -0.4, +1039.0,  +216.0,   +32.0
1691938740, +3.47, +28.460,    -0.4, +1036.0,  +209.0,   +36.0
