7530-458116
OS REV: 1.08 Sensor Cal: 1657263600 Averages: 30
Time (sec),  Bat (Volts),   T (deg C),  PAR (umol/(s m^2))  Ax (mg), Ay (mg), Az (mg)
1692612300, +3.45, +28.460,    -0.3, +1052.0,  +224.0,    +0.0
1692612900, +3.45, +28.468,    -0.4, +1048.0,  +224.0,    +8.0
1692613500, +3.45, +28.460,    -0.3, +1048.0,  +224.0,   +14.0
1692614100, +3.45, +28.452,    -0.3, +1048.0,  +224.0,   +16.0
1692614700, +3.46, +28.435,    -0.5, +1052.0,  +224.0,    +4.0
1692615300, +3.46, +28.394,    -0.4, +1046.0,  +220.0,   +20.0
