7530-458116
OS REV: 1.08 Sensor Cal: 1657263600 Averages: 30
Time (sec),  Bat (Volts),   T (deg C),  PAR (umol/(s m^2))  Ax (mg), Ay (mg), Az (mg)
1695798540, +3.48, +28.107,    -0.3, +1048.0,  +227.0,   +12.0
1695799140, +3.48, +28.107,    -0.5, +1032.0,  +211.0,   +48.0
1695799740, +3.48, +28.099,    -0.4, +1043.0,  +220.0,   +28.0
1695800340, +3.48, +28.074,    -0.4, +1031.0,  +211.0,   +51.0
1695800940, +3.48, +28.083,    -0.3, +1016.0,  +204.0,   +62.0
1695801540, +3.48, +28.074,    -0.5, +1008.0,  +200.0,   +67.0
1695802140, +3.48, +28.074,    -0.3, +1014.0,  +206.0,   +64.0
1695802740, +3.48, +28.058,    -0.4, +1091.0,  +262.0,  -128.0
1695803340, +3.48, +28.066,    -0.4, +1022.0,  +208.0,   +56.0
1695803940, +3.48, +28.066,    -0.5, +1015.0,  +204.0,   +60.0
1695804540, +3.48, +28.074,    -0.4, +1028.0,  +208.0,   +48.0
1695805140, +3.48, +28.066,    -0.4, +1020.0,  +208.0,   +60.0
1695805740, +3.48, +28.066,    -0.4, +1024.0,  +208.0,   +60.0
