7530-458116
OS REV: 1.08 Sensor Cal: 1657263600 Averages: 30
Time (sec),  Bat (Volts),   T (deg C),  PAR (umol/(s m^2))  Ax (mg), Ay (mg), Az (mg)
1692110340, +3.46, +28.378,    -0.4, +1033.0,  +208.0,   +48.0
1692110940, +3.46, +28.402,    -0.3, +1048.0,  +220.0,   +14.0
1692111540, +3.46, +28.411,    -0.4, +1040.0,  +216.0,   +28.0
1692112140, +3.47, +28.411,    -0.4, +1044.0,  +220.0,   +19.0
1692112740, +3.47, +28.411,    -0.3, +1040.0,  +216.0,   +24.0
1692113340, +3.47, +28.312,    -0.5, +1036.0,  +214.0,   +32.0
1692113940, +3.47, +28.238,    -0.3, +1043.0,  +216.0,   +24.0
1692114540, +3.47, +28.271,    -0.4, +1054.0,  +231.0,    -8.0
