7530-458116
OS REV: 1.08 Sensor Cal: 1657263600 Averages: 30
Time (sec),  Bat (Volts),   T (deg C),  PAR (umol/(s m^2))  Ax (mg), Ay (mg), Az (mg)
1698953220, +3.45, +28.312,   +31.8, +1139.0,  +207.0,   -97.0
1698953820, +3.45, +28.320,   +46.0, +1075.0,  +195.0,   +32.0
1698954420, +3.45, +28.329,   +69.0, +1132.0,  +208.0,  -112.0
1698955020, +3.45, +28.345,   +71.8, +1071.0,  +184.0,   +54.0
1698955620, +3.45, +28.337,   +64.7, +1055.0,  +179.0,   +73.0
1698956220, +3.45, +28.329,   +62.3, +1057.0,  +184.0,   +72.0
1698956820, +3.45, +28.329,   +74.3, +1063.0,  +182.0,   +68.0
1698957420, +3.45, +28.345,   +85.6, +1116.0,  +224.0,   -96.0
1698958020, +3.45, +28.337,   +73.2, +1132.0,  +208.0,  -104.0
1698958620, +3.45, +28.329,  +109.1, +1064.0,  +182.0,   +64.0
1698959220, +3.45, +28.345,   +68.8, +1075.0,  +192.0,   +40.0
1698959820, +3.45, +28.337,   +64.5, +1063.0,  +184.0,   +62.0
1698960420, +3.45, +28.345,   +96.6, +1075.0,  +192.0,   +40.0
1698961020, +3.46, +28.353,   +60.8, +1068.0,  +188.0,   +51.0
1698961620, +3.46, +28.353,  +143.1, +1063.0,  +184.0,   +60.0
1698962220, +3.46, +28.353,   +64.7, +1123.0,  +204.0,   -92.0
1698962820, +3.46, +28.361,  +167.3, +1081.0,  +198.0,   +16.0
