7530-458116
OS REV: 1.08 Sensor Cal: 1657263600 Averages: 30
Time (sec),  Bat (Volts),   T (deg C),  PAR (umol/(s m^2))  Ax (mg), Ay (mg), Az (mg)
1692132000, +3.47, +28.419,   +24.8, +1040.0,  +216.0,   +28.0
1692132600, +3.47, +28.411,   +26.0, +1043.0,  +216.0,   +24.0
1692133200, +3.47, +28.419,   +28.7, +1039.0,  +216.0,   +32.0
1692133800, +3.47, +28.370,   +33.8, +1036.0,  +211.0,   +40.0
1692134400, +3.47, +28.337,   +27.5, +1031.0,  +208.0,   +48.0
1692135000, +3.48, +28.345,   +41.6, +1046.0,  +220.0,   +16.0
1692135600, +3.48, +28.345,   +44.4, +1052.0,  +224.0,    +0.0
1692136200, +3.48, +28.361,   +49.0, +1041.0,  +220.0,   +24.0
1692136800, +3.48, +28.361,   +54.8, +1046.0,  +220.0,   +17.0
1692137400, +3.48, +28.370,   +59.6, +1041.0,  +220.0,   +20.0
1692138000, +3.48, +28.370,   +62.9, +1040.0,  +216.0,   +24.0
1692138600, +3.48, +28.386,   +64.5, +1041.0,  +220.0,   +22.0
1692139200, +3.48, +28.378,   +71.6, +1043.0,  +216.0,   +24.0
1692139800, +3.48, +28.386,   +75.9, +1048.0,  +224.0,    +7.0
1692140400, +3.48, +28.394,   +79.6, +1043.0,  +216.0,   +24.0
1692141000, +3.48, +28.386,   +79.9, +1044.0,  +220.0,   +22.0
1692141600, +3.48, +28.378,   +82.1, +1040.0,  +216.0,   +28.0
