7530-458116
OS REV: 1.08 Sensor Cal: 1657263600 Averages: 30
Time (sec),  Bat (Volts),   T (deg C),  PAR (umol/(s m^2))  Ax (mg), Ay (mg), Az (mg)
1699604700, +3.47, +28.501,    -0.4, +1072.0,  +188.0,   +48.0
1699605300, +3.47, +28.509,    -0.4, +1070.0,  +192.0,   +51.0
1699605900, +3.47, +28.509,    -0.4, +1072.0,  +192.0,   +44.0
1699606500, +3.47, +28.501,    -0.4, +1075.0,  +192.0,   +39.0
1699607100, +3.47, +28.460,    -0.4, +1143.0,  +214.0,  -105.0
1699607700, +3.46, +28.435,    -0.2, +1139.0,  +212.0,   -97.0
1699608300, +3.46, +28.419,    -0.4, +1137.0,  +202.0,   -89.0
1699608900, +3.46, +28.427,    -0.4, +1079.0,  +195.0,   +32.0
1699609500, +3.46, +28.411,    -0.3, +1071.0,  +188.0,   +48.0
1699610100, +3.46, +28.427,    -0.4, +1075.0,  +192.0,   +40.0
1699610700, +3.46, +28.427,    -0.4, +1068.0,  +188.0,   +48.0
1699611300, +3.46, +28.427,    -0.4, +1062.0,  +182.0,   +70.0
1699611900, +3.46, +28.419,    -0.5, +1064.0,  +184.0,   +64.0
