7530-458116
OS REV: 1.08 Sensor Cal: 1657263600 Averages: 30
Time (sec),  Bat (Volts),   T (deg C),  PAR (umol/(s m^2))  Ax (mg), Ay (mg), Az (mg)
1701734640, +3.47, +28.370,  +154.3, +1080.0,  +196.0,   +32.0
1701735240, +3.47, +28.378,   +50.1, +1072.0,  +188.0,   +56.0
1701735840, +3.47, +28.386,   +91.5, +1144.0,  +209.0,  -100.0
1701736440, +3.47, +28.394,  +151.3, +1064.0,  +184.0,   +70.0
1701737040, +3.47, +28.394,  +130.5, +1072.0,  +192.0,   +56.0
1701737640, +3.47, +28.411,  +128.9, +1055.0,  +176.0,   +88.0
1701738240, +3.47, +28.402,  +133.3, +1068.0,  +192.0,   +62.0
1701738840, +3.47, +28.345,   +23.1, +1070.0,  +188.0,   +62.0
1701739440, +3.47, +28.337,  +113.7, +1059.0,  +184.0,   +72.0
1701740040, +3.47, +28.329,  +106.2, +1080.0,  +193.0,   +35.0
1701740640, +3.47, +28.312,   +67.2, +1068.0,  +184.0,   +64.0
1701741240, +3.47, +28.279,   +90.7, +1072.0,  +192.0,   +51.0
1701741840, +3.47, +28.263,   +78.9, +1065.0,  +184.0,   +70.0
1701742440, +3.47, +28.279,   +73.6, +1055.0,  +176.0,   +86.0
1701743040, +3.46, +28.345,   +75.6, +1062.0,  +184.0,   +70.0
1701743640, +3.47, +28.411,   +63.1, +1068.0,  +184.0,   +64.0
1701744240, +3.46, +28.435,   +63.2, +1049.0,  +176.0,   +92.0
1701744840, +3.46, +28.435,   +48.2, +1068.0,  +184.0,   +62.0
1701745440, +3.46, +28.443,   +42.1, +1055.0,  +176.0,   +88.0
1701746040, +3.46, +28.427,   +36.5, +1054.0,  +176.0,   +88.0
1701746640, +3.46, +28.427,   +31.6, +1051.0,  +179.0,   +86.0
1701747240, +3.46, +28.427,   +28.2, +1062.0,  +182.0,   +76.0
1701747840, +3.46, +28.419,   +14.2, +1078.0,  +192.0,   +44.0
1701748440, +3.46, +28.419,   +23.5, +1078.0,  +192.0,   +44.0
