7530-458116
OS REV: 1.08 Sensor Cal: 1657263600 Averages: 30
Time (sec),  Bat (Volts),   T (deg C),  PAR (umol/(s m^2))  Ax (mg), Ay (mg), Az (mg)
1699877460, +3.44, +28.607,    -0.4, +1112.0,  +224.0,   -80.0
1699878060, +3.44, +28.607,    -0.4, +1054.0,  +176.0,   +80.0
1699878660, +3.44, +28.582,    -0.3, +1059.0,  +179.0,   +76.0
1699879260, +3.44, +28.542,    -0.4, +1123.0,  +216.0,   -98.0
1699879860, +3.45, +28.542,    -0.4, +1038.0,  +166.0,   +99.0
1699880460, +3.45, +28.542,    -0.4, +1008.0,  +156.0,  +104.0
1699881060, +3.45, +28.566,    -0.4, +1052.0,  +176.0,   +83.0
1699881660, +3.45, +28.566,    -0.4, +1072.0,  +192.0,   +44.0
