7530-458116
OS REV: 1.08 Sensor Cal: 1657263600 Averages: 30
Time (sec),  Bat (Volts),   T (deg C),  PAR (umol/(s m^2))  Ax (mg), Ay (mg), Az (mg)
1693225980, +3.46, +28.206,    -0.4, +1022.0,  +204.0,   +56.0
1693226580, +3.46, +28.197,    -0.4, +1024.0,  +206.0,   +56.0
1693227180, +3.46, +28.189,    -0.3, +1094.0,  +236.0,  -112.0
1693227780, +3.46, +28.115,    -0.4, +1030.0,  +208.0,   +51.0
1693228380, +3.47, +28.074,    -0.4, +1014.0,  +200.0,   +64.0
1693228980, +3.47, +28.066,    -0.5, +1020.0,  +206.0,   +56.0
1693229580, +3.47, +28.091,    -0.4, +1024.0,  +206.0,   +56.0
