7530-458116
OS REV: 1.08 Sensor Cal: 1657263600 Averages: 30
Time (sec),  Bat (Volts),   T (deg C),  PAR (umol/(s m^2))  Ax (mg), Ay (mg), Az (mg)
1692385860, +3.45, +28.435,    +9.7, +1048.0,  +220.0,   +16.0
1692386460, +3.45, +28.435,   +11.5, +1048.0,  +224.0,    +6.0
1692387060, +3.46, +28.435,   +13.5, +1049.0,  +224.0,    +7.0
1692387660, +3.46, +28.435,   +15.0, +1051.0,  +224.0,    +0.0
1692388260, +3.46, +28.443,   +16.7, +1062.0,  +232.0,   -24.0
1692388860, +3.46, +28.443,   +17.5, +1054.0,  +227.0,    +0.0
