7530-458116
OS REV: 1.08 Sensor Cal: 1657263600 Averages: 30
Time (sec),  Bat (Volts),   T (deg C),  PAR (umol/(s m^2))  Ax (mg), Ay (mg), Az (mg)
1692119280, +3.47, +28.370,    -0.4, +1046.0,  +220.0,   +20.0
1692119880, +3.47, +28.345,    -0.4, +1040.0,  +216.0,   +28.0
1692120480, +3.47, +28.353,    -0.3, +1043.0,  +216.0,   +24.0
1692121080, +3.47, +28.370,    -0.0, +1040.0,  +216.0,   +24.0
1692121680, +3.47, +28.345,    +0.9, +1043.0,  +220.0,   +22.0
1692122280, +3.47, +28.353,    +1.8, +1048.0,  +224.0,   +12.0
1692122880, +3.47, +28.361,    +2.6, +1048.0,  +220.0,   +16.0
1692123480, +3.47, +28.370,    +3.8, +1043.0,  +224.0,   +17.0
1692124080, +3.47, +28.394,    +4.6, +1043.0,  +220.0,   +20.0
1692124680, +3.47, +28.394,    +5.4, +1041.0,  +220.0,   +24.0
1692125280, +3.47, +28.394,    +5.6, +1048.0,  +224.0,   +12.0
1692125880, +3.47, +28.394,    +7.8, +1038.0,  +216.0,   +32.0
1692126480, +3.47, +28.402,    +8.6, +1043.0,  +216.0,   +22.0
1692127080, +3.47, +28.402,    +9.8, +1041.0,  +216.0,   +28.0
1692127680, +3.47, +28.402,   +10.9, +1048.0,  +227.0,    +6.0
1692128280, +3.47, +28.419,   +11.2, +1046.0,  +220.0,   +16.0
1692128880, +3.47, +28.402,   +13.5, +1046.0,  +220.0,   +16.0
1692129480, +3.47, +28.402,   +15.0, +1048.0,  +220.0,   +16.0
1692130080, +3.47, +28.411,   +16.7, +1043.0,  +216.0,   +19.0
1692130680, +3.47, +28.394,   +18.7, +1040.0,  +216.0,   +28.0
1692131280, +3.47, +28.411,   +20.3, +1048.0,  +224.0,   +12.0
