7530-458116
OS REV: 1.08 Sensor Cal: 1657263600 Averages: 30
Time (sec),  Bat (Volts),   T (deg C),  PAR (umol/(s m^2))  Ax (mg), Ay (mg), Az (mg)
1692667200, +3.46, +28.345,   +28.4, +1048.0,  +220.0,   +17.0
1692667800, +3.46, +28.345,   +97.6, +1043.0,  +220.0,   +16.0
1692668400, +3.46, +28.345,  +109.4, +1048.0,  +224.0,   +12.0
1692669000, +3.46, +28.337,   +19.7, +1048.0,  +224.0,   +12.0
1692669600, +3.46, +28.329,   +24.1, +1048.0,  +224.0,    +8.0
1692670200, +3.46, +28.312,   +14.4, +1043.0,  +216.0,   +24.0
1692670800, +3.46, +28.304,   +48.3, +1048.0,  +224.0,    +8.0
1692671400, +3.47, +28.320,   +66.6, +1048.0,  +224.0,   +12.0
1692672000, +3.47, +28.312,   +15.3, +1048.0,  +224.0,   +12.0
1692672600, +3.47, +28.312,   +55.1, +1048.0,  +224.0,    +6.0
1692673200, +3.47, +28.312,   +10.9, +1052.0,  +224.0,    +8.0
1692673800, +3.47, +28.329,   +29.7, +1041.0,  +216.0,   +24.0
1692674400, +3.47, +28.296,   +42.1, +1049.0,  +224.0,   +12.0
1692675000, +3.47, +28.083,   +16.9, +1048.0,  +224.0,   +16.0
1692675600, +3.47, +28.066,   +10.5, +1049.0,  +224.0,    +8.0
1692676200, +3.47, +28.124,    +8.1, +1049.0,  +224.0,    +8.0
1692676800, +3.47, +28.181,   +15.9, +1049.0,  +224.0,    +3.0
1692677400, +3.47, +28.222,   +13.2, +1048.0,  +224.0,    +8.0
1692678000, +3.47, +28.255,   +11.5, +1048.0,  +224.0,    +8.0
1692678600, +3.47, +28.189,    +7.5, +1043.0,  +220.0,   +24.0
1692679200, +3.47, +28.132,    +5.2, +1039.0,  +220.0,   +24.0
1692679800, +3.47, +28.148,    +4.5, +1036.0,  +216.0,   +40.0
1692680400, +3.47, +28.156,    +1.9, +1056.0,  +231.0,   -16.0
1692681000, +3.47, +28.132,    +0.7, +1048.0,  +224.0,   +12.0
1692681600, +3.47, +28.115,    -0.1,  +983.0,  +191.0,   +72.0
1692682200, +3.47, +28.107,    -0.4, +1054.0,  +230.0,    -8.0
1692682800, +3.47, +28.148,    -0.4, +1041.0,  +216.0,   +24.0
1692683400, +3.47, +28.230,    -0.4, +1062.0,  +232.0,   -16.0
