7530-458116
OS REV: 1.08 Sensor Cal: 1657263600 Averages: 30
Time (sec),  Bat (Volts),   T (deg C),  PAR (umol/(s m^2))  Ax (mg), Ay (mg), Az (mg)
1692506100, +3.46, +28.083,    +6.4, +1056.0,  +231.0,   -16.0
1692506700, +3.46, +28.050,    +4.1, +1062.0,  +232.0,   -25.0
1692507300, +3.46, +28.033,    +2.5, +1052.0,  +225.0,    +0.0
1692507900, +3.46, +28.017,    +1.5, +1048.0,  +224.0,    +6.0
1692508500, +3.46, +28.017,    +0.3, +1056.0,  +232.0,   -16.0
1692509100, +3.47, +28.025,    -0.4, +1046.0,  +224.0,   +12.0
1692509700, +3.47, +28.009,    -0.4, +1039.0,  +216.0,   +32.0
1692510300, +3.47, +27.951,    -0.4, +1038.0,  +216.0,   +35.0
1692510900, +3.47, +27.885,    -0.3, +1040.0,  +216.0,   +32.0
1692511500, +3.47, +27.861,    -0.4, +1039.0,  +216.0,   +30.0
1692512100, +3.47, +27.877,    -0.4, +1041.0,  +216.0,   +30.0
1692512700, +3.47, +27.927,    -0.3, +1055.0,  +228.0,    -8.0
