7530-458116
OS REV: 1.08 Sensor Cal: 1657263600 Averages: 30
Time (sec),  Bat (Volts),   T (deg C),  PAR (umol/(s m^2))  Ax (mg), Ay (mg), Az (mg)
1692529080, +3.44, +28.304,    -0.4, +1048.0,  +224.0,   +16.0
1692529680, +3.44, +28.296,    -0.5, +1044.0,  +216.0,   +20.0
1692530280, +3.44, +28.312,    -0.3, +1052.0,  +224.0,    +1.0
1692530880, +3.44, +28.312,    -0.4, +1054.0,  +224.0,    +4.0
1692531480, +3.45, +28.320,    -0.3, +1046.0,  +217.0,   +22.0
1692532080, +3.45, +28.320,    -0.4, +1048.0,  +224.0,   +12.0
1692532680, +3.45, +28.320,    -0.3, +1052.0,  +224.0,    +6.0
1692533280, +3.45, +28.345,    -0.4, +1048.0,  +224.0,   +16.0
1692533880, +3.46, +28.353,    -0.3, +1048.0,  +224.0,   +12.0
1692534480, +3.46, +28.361,    -0.4, +1041.0,  +224.0,   +24.0
1692535080, +3.46, +28.361,    -0.5, +1040.0,  +216.0,   +28.0
