7530-458116
OS REV: 1.08 Sensor Cal: 1657263600 Averages: 30
Time (sec),  Bat (Volts),   T (deg C),  PAR (umol/(s m^2))  Ax (mg), Ay (mg), Az (mg)
1692097260, +3.47, +28.337,    -0.3, +1043.0,  +220.0,   +24.0
1692097860, +3.47, +28.320,    -0.4, +1043.0,  +216.0,   +22.0
1692098460, +3.47, +28.353,    -0.4, +1048.0,  +220.0,   +12.0
1692099060, +3.47, +28.345,    -0.4, +1048.0,  +224.0,   +12.0
1692099660, +3.47, +28.337,    -0.4, +1046.0,  +220.0,   +20.0
1692100260, +3.47, +28.329,    -0.3, +1043.0,  +220.0,   +24.0
1692100860, +3.47, +28.345,    -0.3, +1043.0,  +220.0,   +20.0
1692101460, +3.47, +28.361,    -0.4, +1048.0,  +224.0,    +7.0
