7530-458116
OS REV: 1.08 Sensor Cal: 1657263600 Averages: 30
Time (sec),  Bat (Volts),   T (deg C),  PAR (umol/(s m^2))  Ax (mg), Ay (mg), Az (mg)
1698447240, +3.46, +28.247,  +119.5, +1072.0,  +192.0,   +46.0
1698447840, +3.46, +28.263,  +135.8, +1116.0,  +224.0,   -92.0
1698448440, +3.46, +28.263,   +76.8, +1113.0,  +227.0,   -93.0
1698449040, +3.46, +28.255,  +130.0, +1059.0,  +179.0,   +66.0
1698449640, +3.46, +28.247,  +153.0, +1120.0,  +209.0,   -88.0
1698450240, +3.46, +28.255,   +51.4, +1046.0,  +176.0,   +88.0
1698450840, +3.46, +28.247,   +37.6, +1008.0,  +159.0,  +103.0
1698451440, +3.46, +28.238,   +44.5, +1120.0,  +227.0,  -104.0
