7530-458116
OS REV: 1.08 Sensor Cal: 1657263600 Averages: 30
Time (sec),  Bat (Volts),   T (deg C),  PAR (umol/(s m^2))  Ax (mg), Ay (mg), Az (mg)
1698860040, +3.48, +28.394,    +8.1, +1056.0,  +182.0,   +71.0
1698860640, +3.48, +28.394,   +10.3, +1063.0,  +184.0,   +64.0
1698861240, +3.48, +28.394,   +12.7, +1063.0,  +184.0,   +64.0
1698861840, +3.48, +28.386,   +16.7, +1064.0,  +184.0,   +60.0
1698862440, +3.48, +28.386,   +14.5, +1063.0,  +184.0,   +60.0
1698863040, +3.48, +28.345,   +24.0, +1078.0,  +196.0,   +28.0
1698863640, +3.48, +28.304,   +26.5, +1072.0,  +192.0,   +48.0
1698864240, +3.48, +28.304,   +23.4, +1068.0,  +188.0,   +52.0
1698864840, +3.48, +28.320,   +18.5, +1072.0,  +192.0,   +44.0
1698865440, +3.48, +28.353,   +24.6, +1065.0,  +188.0,   +56.0
