7530-458116
OS REV: 1.08 Sensor Cal: 1657263600 Averages: 30
Time (sec),  Bat (Volts),   T (deg C),  PAR (umol/(s m^2))  Ax (mg), Ay (mg), Az (mg)
1692189420, +3.47, +28.476,    -0.4, +1055.0,  +228.0,    -8.0
1692190020, +3.47, +28.476,    -0.3, +1048.0,  +224.0,    +8.0
1692190620, +3.47, +28.484,    -0.3, +1048.0,  +224.0,   +12.0
1692191220, +3.47, +28.484,    -0.4, +1044.0,  +220.0,   +16.0
1692191820, +3.47, +28.492,    -0.4, +1054.0,  +225.0,    +0.0
1692192420, +3.47, +28.476,    -0.3,  +977.0,  +190.0,   +72.0
1692193020, +3.47, +28.492,    -0.4,  +979.0,  +188.0,   +71.0
