7530-458116
OS REV: 1.08 Sensor Cal: 1657263600 Averages: 30
Time (sec),  Bat (Volts),   T (deg C),  PAR (umol/(s m^2))  Ax (mg), Ay (mg), Az (mg)
1693383360, +3.43, +27.894,    -0.4, +1036.0,  +212.0,   +40.0
1693383960, +3.43, +27.877,    -0.3, +1038.0,  +216.0,   +32.0
1693384560, +3.44, +27.861,    -0.4, +1035.0,  +212.0,   +40.0
1693385160, +3.44, +27.820,    -0.3, +1039.0,  +216.0,   +32.0
1693385760, +3.45, +27.779,    -0.3, +1040.0,  +216.0,   +24.0
1693386360, +3.45, +27.853,    -0.4, +1036.0,  +211.0,   +36.0
