7530-458116
OS REV: 1.08 Sensor Cal: 1657263600 Averages: 30
Time (sec),  Bat (Volts),   T (deg C),  PAR (umol/(s m^2))  Ax (mg), Ay (mg), Az (mg)
1692456600, +3.47, +28.468,    -0.4, +1048.0,  +220.0,   +16.0
1692457200, +3.47, +28.468,    -0.4, +1048.0,  +224.0,    +8.0
1692457800, +3.47, +28.468,    -0.4, +1046.0,  +216.0,   +19.0
1692458400, +3.47, +28.452,    -0.4, +1043.0,  +220.0,   +19.0
1692459000, +3.47, +28.468,    -0.3, +1048.0,  +224.0,   +14.0
1692459600, +3.47, +28.468,    -0.4, +1043.0,  +220.0,   +16.0
1692460200, +3.47, +28.460,    -0.5, +1048.0,  +220.0,   +22.0
1692460800, +3.47, +28.460,    -0.4, +1048.0,  +224.0,   +16.0
1692461400, +3.47, +28.452,    -0.4, +1048.0,  +224.0,   +14.0
1692462000, +3.47, +28.460,    -0.3, +1046.0,  +220.0,   +19.0
1692462600, +3.47, +28.460,    -0.5, +1043.0,  +220.0,   +22.0
1692463200, +3.47, +28.452,    -0.4, +1043.0,  +220.0,   +16.0
1692463800, +3.47, +28.452,    -0.4, +1046.0,  +224.0,   +16.0
1692464400, +3.47, +28.452,    -0.5, +1048.0,  +224.0,   +16.0
1692465000, +3.47, +28.460,    -0.3, +1043.0,  +220.0,   +24.0
1692465600, +3.47, +28.452,    -0.4, +1043.0,  +216.0,   +24.0
1692466200, +3.47, +28.460,    -0.2, +1048.0,  +224.0,   +16.0
1692466800, +3.47, +28.468,    +0.7, +1046.0,  +224.0,   +14.0
1692467400, +3.47, +28.460,    +2.0, +1046.0,  +220.0,   +22.0
1692468000, +3.47, +28.468,    +3.5, +1043.0,  +220.0,   +22.0
1692468600, +3.47, +28.452,    +4.3, +1048.0,  +224.0,   +14.0
