7530-458116
OS REV: 1.08 Sensor Cal: 1657263600 Averages: 30
Time (sec),  Bat (Volts),   T (deg C),  PAR (umol/(s m^2))  Ax (mg), Ay (mg), Az (mg)
1693412520, +3.46, +28.058,    -0.4, +1055.0,  +225.0,    +0.0
1693413120, +3.46, +28.042,    -0.4, +1040.0,  +220.0,   +22.0
1693413720, +3.46, +28.033,    -0.4, +1031.0,  +209.0,   +44.0
1693414320, +3.46, +28.033,    -0.4, +1036.0,  +216.0,   +36.0
1693414920, +3.46, +28.042,    -0.4, +1036.0,  +211.0,   +35.0
1693415520, +3.46, +28.066,    -0.4, +1036.0,  +216.0,   +35.0
1693416120, +3.47, +28.066,    -0.3, +1039.0,  +216.0,   +28.0
1693416720, +3.47, +28.050,    +0.2, +1043.0,  +216.0,   +24.0
1693417320, +3.47, +28.050,    +1.0, +1040.0,  +216.0,   +24.0
1693417920, +3.47, +28.017,    +2.1, +1038.0,  +214.0,   +35.0
