7530-458116
OS REV: 1.08 Sensor Cal: 1657263600 Averages: 30
Time (sec),  Bat (Volts),   T (deg C),  PAR (umol/(s m^2))  Ax (mg), Ay (mg), Az (mg)
1696791180, +3.49, +28.107,   +20.8, +1031.0,  +167.0,   +96.0
1696791780, +3.49, +28.107,   +28.1, +1054.0,  +179.0,   +78.0
1696792380, +3.49, +28.107,   +18.1, +1112.0,  +227.0,  -100.0
1696792980, +3.49, +28.107,   +33.0, +1041.0,  +176.0,   +86.0
1696793580, +3.49, +28.107,   +35.7, +1115.0,  +231.0,  -100.0
1696794180, +3.49, +28.107,   +38.5, +1036.0,  +172.0,   +96.0
1696794780, +3.49, +28.107,   +15.4, +1031.0,  +168.0,   +92.0
1696795380, +3.49, +28.107,   +28.9, +1056.0,  +184.0,   +68.0
1696795980, +3.49, +28.115,   +58.1, +1072.0,  +193.0,   +36.0
1696796580, +3.49, +28.115,   +52.0, +1057.0,  +184.0,   +64.0
1696797180, +3.48, +28.115,   +44.1, +1059.0,  +184.0,   +64.0
