7530-458116
OS REV: 1.08 Sensor Cal: 1657263600 Averages: 30
Time (sec),  Bat (Volts),   T (deg C),  PAR (umol/(s m^2))  Ax (mg), Ay (mg), Az (mg)
1692087480, +3.47, +28.452,    -0.3, +1052.0,  +227.0,    +0.0
1692088080, +3.47, +28.443,    -0.3, +1048.0,  +224.0,    +3.0
1692088680, +3.47, +28.452,    -0.5, +1046.0,  +220.0,   +16.0
1692089280, +3.47, +28.452,    -0.4, +1044.0,  +216.0,   +20.0
1692089880, +3.47, +28.452,    -0.3, +1046.0,  +216.0,   +24.0
1692090480, +3.47, +28.452,    -0.4, +1055.0,  +227.0,    -8.0
1692091080, +3.47, +28.452,    -0.4, +1043.0,  +220.0,   +22.0
1692091680, +3.47, +28.452,    -0.4, +1039.0,  +216.0,   +28.0
1692092280, +3.47, +28.452,    -0.3, +1027.0,  +206.0,   +52.0
1692092880, +3.47, +28.460,    -0.4, +1038.0,  +214.0,   +32.0
1692093480, +3.47, +28.460,    -0.4, +1038.0,  +212.0,   +40.0
1692094080, +3.47, +28.460,    -0.4, +1025.0,  +207.0,   +56.0
1692094680, +3.47, +28.468,    -0.3, +1046.0,  +220.0,   +14.0
1692095280, +3.47, +28.452,    -0.4, +1048.0,  +224.0,    +6.0
1692095880, +3.47, +28.386,    -0.3, +1043.0,  +220.0,   +18.0
1692096480, +3.47, +28.402,    -0.4,  +979.0,  +190.0,   +72.0
