7530-458116
OS REV: 1.08 Sensor Cal: 1657263600 Averages: 30
Time (sec),  Bat (Volts),   T (deg C),  PAR (umol/(s m^2))  Ax (mg), Ay (mg), Az (mg)
1693951620, +3.43, +28.165,  +104.8, +1052.0,  +224.0,    +4.0
1693952220, +3.44, +28.165,   +48.1, +1043.0,  +224.0,   +14.0
1693952820, +3.44, +28.165,  +113.3, +1046.0,  +224.0,   +16.0
1693953420, +3.45, +28.156,   +52.9, +1048.0,  +224.0,    +6.0
1693954020, +3.45, +28.156,  +116.7, +1033.0,  +211.0,   +40.0
1693954620, +3.45, +28.148,  +131.7, +1033.0,  +216.0,   +36.0
