7530-458116
OS REV: 1.08 Sensor Cal: 1657263600 Averages: 30
Time (sec),  Bat (Volts),   T (deg C),  PAR (umol/(s m^2))  Ax (mg), Ay (mg), Az (mg)
1692449340, +3.47, +28.484,    -0.4, +1051.0,  +224.0,    +8.0
1692449940, +3.47, +28.476,    -0.4, +1048.0,  +220.0,   +16.0
1692450540, +3.47, +28.484,    -0.4, +1040.0,  +216.0,   +28.0
1692451140, +3.47, +28.476,    -0.4, +1043.0,  +216.0,   +22.0
1692451740, +3.47, +28.460,    -0.3, +1039.0,  +216.0,   +32.0
1692452340, +3.47, +28.468,    -0.4, +1048.0,  +220.0,   +16.0
1692452940, +3.47, +28.460,    -0.4, +1041.0,  +216.0,   +28.0
