7530-458116
OS REV: 1.08 Sensor Cal: 1657263600 Averages: 30
Time (sec),  Bat (Volts),   T (deg C),  PAR (umol/(s m^2))  Ax (mg), Ay (mg), Az (mg)
1692433260, +3.46, +28.501,    -0.4, +1048.0,  +217.0,   +16.0
1692433860, +3.46, +28.501,    -0.5, +1043.0,  +220.0,   +16.0
1692434460, +3.47, +28.501,    -0.3, +1048.0,  +224.0,    +7.0
1692435060, +3.47, +28.492,    -0.4, +1054.0,  +224.0,    -8.0
1692435660, +3.47, +28.501,    -0.4, +1046.0,  +220.0,   +16.0
1692436260, +3.47, +28.501,    -0.5, +1054.0,  +227.0,    +0.0
1692436860, +3.47, +28.492,    -0.4, +1048.0,  +224.0,    +8.0
1692437460, +3.47, +28.492,    -0.4, +1048.0,  +220.0,   +12.0
1692438060, +3.47, +28.492,    -0.2, +1048.0,  +224.0,    +8.0
1692438660, +3.47, +28.484,    -0.3, +1049.0,  +224.0,    +4.0
1692439260, +3.47, +28.476,    -0.4, +1048.0,  +224.0,    +8.0
1692439860, +3.47, +28.492,    -0.4, +1048.0,  +224.0,   +16.0
1692440460, +3.47, +28.492,    -0.5, +1046.0,  +220.0,   +16.0
1692441060, +3.47, +28.492,    -0.5, +1048.0,  +224.0,    +8.0
