7530-458116
OS REV: 1.08 Sensor Cal: 1657263600 Averages: 30
Time (sec),  Bat (Volts),   T (deg C),  PAR (umol/(s m^2))  Ax (mg), Ay (mg), Az (mg)
1699766100, +3.48, +28.058,    +1.5, +1075.0,  +192.0,   +44.0
1699766700, +3.48, +28.074,    +0.4, +1057.0,  +176.0,   +76.0
1699767300, +3.48, +28.140,    -0.1, +1062.0,  +182.0,   +68.0
1699767900, +3.48, +28.238,    -0.4, +1046.0,  +172.0,   +96.0
1699768500, +3.48, +28.222,    -0.4, +1031.0,  +164.0,  +104.0
1699769100, +3.48, +28.222,    -0.4, +1052.0,  +176.0,   +88.0
1699769700, +3.48, +28.230,    -0.4, +1041.0,  +172.0,   +96.0
1699770300, +3.49, +28.222,    -0.4, +1044.0,  +172.0,   +96.0
1699770900, +3.49, +28.279,    -0.4, +1043.0,  +172.0,   +96.0
1699771500, +3.49, +28.271,    -0.4, +1032.0,  +167.0,  +104.0
1699772100, +3.49, +28.238,    -0.4, +1030.0,  +166.0,  +104.0
1699772700, +3.49, +28.288,    -0.5, +1030.0,  +163.0,  +104.0
1699773300, +3.49, +28.353,    -0.3, +1041.0,  +169.0,   +96.0
1699773900, +3.49, +28.411,    -0.4, +1036.0,  +164.0,  +102.0
1699774500, +3.49, +28.402,    -0.4, +1020.0,  +160.0,  +112.0
