7530-458116
OS REV: 1.08 Sensor Cal: 1657263600 Averages: 30
Time (sec),  Bat (Volts),   T (deg C),  PAR (umol/(s m^2))  Ax (mg), Ay (mg), Az (mg)
1696676520, +3.45, +28.132,    -0.4, +1063.0,  +184.0,   +56.0
1696677120, +3.45, +28.115,    -0.4, +1068.0,  +192.0,   +44.0
1696677720, +3.45, +28.115,    -0.5, +1083.0,  +200.0,   +12.0
1696678320, +3.45, +28.132,    -0.4, +1072.0,  +196.0,   +35.0
1696678920, +3.45, +28.132,    -0.3, +1064.0,  +188.0,   +52.0
1696679520, +3.45, +28.124,    -0.3, +1075.0,  +198.0,   +28.0
1696680120, +3.46, +28.124,    -0.5, +1047.0,  +177.0,   +79.0
1696680720, +3.46, +28.115,    -0.4, +1057.0,  +184.0,   +67.0
1696681320, +3.46, +28.124,    -0.4, +1112.0,  +227.0,   -80.0
1696681920, +3.46, +28.115,    -0.4, +1046.0,  +176.0,   +83.0
1696682520, +3.46, +28.107,    -0.5, +1072.0,  +192.0,   +40.0
1696683120, +3.46, +28.115,    -0.4, +1070.0,  +192.0,   +40.0
1696683720, +3.46, +28.115,    -0.4, +1076.0,  +198.0,   +24.0
1696684320, +3.46, +28.107,    -0.5, +1064.0,  +192.0,   +51.0
