7530-458116
OS REV: 1.08 Sensor Cal: 1657263600 Averages: 30
Time (sec),  Bat (Volts),   T (deg C),  PAR (umol/(s m^2))  Ax (mg), Ay (mg), Az (mg)
1692548880, +3.46, +28.402,    -0.3, +1046.0,  +216.0,   +20.0
1692549480, +3.46, +28.402,    -0.5, +1040.0,  +216.0,   +24.0
1692550080, +3.46, +28.402,    -0.3, +1043.0,  +220.0,   +22.0
1692550680, +3.46, +28.402,    -0.4, +1040.0,  +216.0,   +28.0
1692551280, +3.46, +28.394,    -0.3, +1043.0,  +220.0,   +24.0
1692551880, +3.47, +28.394,    -0.4, +1039.0,  +216.0,   +30.0
1692552480, +3.47, +28.402,    -0.2, +1038.0,  +216.0,   +35.0
1692553080, +3.47, +28.394,    +0.3, +1043.0,  +220.0,   +20.0
1692553680, +3.47, +28.394,    +1.3, +1041.0,  +216.0,   +24.0
1692554280, +3.47, +28.394,    +2.3, +1043.0,  +216.0,   +24.0
1692554880, +3.47, +28.394,    +4.2, +1046.0,  +220.0,   +16.0
1692555480, +3.47, +28.402,    +6.0, +1041.0,  +216.0,   +24.0
1692556080, +3.47, +28.411,    +7.4, +1043.0,  +224.0,   +20.0
1692556680, +3.47, +28.402,    +6.5, +1046.0,  +216.0,   +24.0
1692557280, +3.47, +28.402,    +8.3, +1041.0,  +216.0,   +28.0
1692557880, +3.47, +28.402,    +9.3, +1052.0,  +224.0,    +8.0
1692558480, +3.47, +28.394,    +9.8, +1048.0,  +224.0,   +12.0
