7530-458116
OS REV: 1.08 Sensor Cal: 1657263600 Averages: 30
Time (sec),  Bat (Volts),   T (deg C),  PAR (umol/(s m^2))  Ax (mg), Ay (mg), Az (mg)
1692491580, +3.45, +28.427,  +123.8, +1039.0,  +216.0,   +32.0
1692492180, +3.45, +28.443,  +122.2, +1043.0,  +224.0,   +16.0
1692492780, +3.45, +28.452,  +118.1, +1044.0,  +220.0,   +14.0
1692493380, +3.46, +28.460,  +117.1, +1043.0,  +220.0,   +19.0
1692493980, +3.46, +28.460,  +112.9, +1040.0,  +216.0,   +28.0
1692494580, +3.46, +28.460,  +108.1, +1041.0,  +216.0,   +28.0
1692495180, +3.46, +28.460,  +105.4, +1046.0,  +220.0,   +16.0
1692495780, +3.46, +28.460,  +102.9, +1040.0,  +216.0,   +28.0
1692496380, +3.46, +28.460,   +97.4, +1040.0,  +216.0,   +28.0
1692496980, +3.46, +28.468,   +92.1, +1043.0,  +216.0,   +24.0
1692497580, +3.47, +28.468,   +75.4, +1041.0,  +216.0,   +25.0
1692498180, +3.47, +28.476,   +82.9, +1046.0,  +217.0,   +22.0
1692498780, +3.47, +28.476,   +75.7, +1046.0,  +220.0,   +22.0
1692499380, +3.47, +28.484,   +71.4, +1052.0,  +224.0,    +8.0
