7530-458116
OS REV: 1.08 Sensor Cal: 1657263600 Averages: 30
Time (sec),  Bat (Volts),   T (deg C),  PAR (umol/(s m^2))  Ax (mg), Ay (mg), Az (mg)
1693521780, +3.44, +28.189,  +113.5, +1043.0,  +216.0,   +24.0
1693522380, +3.44, +28.197,  +111.2, +1016.0,  +200.0,   +62.0
1693522980, +3.45, +28.197,   +64.0, +1043.0,  +220.0,   +24.0
1693523580, +3.45, +28.197,  +126.2, +1038.0,  +216.0,   +32.0
1693524180, +3.45, +28.206,  +134.4, +1049.0,  +224.0,    +6.0
1693524780, +3.45, +28.197,   +68.1, +1052.0,  +224.0,    +1.0
