7530-458116
OS REV: 1.08 Sensor Cal: 1657263600 Averages: 30
Time (sec),  Bat (Volts),   T (deg C),  PAR (umol/(s m^2))  Ax (mg), Ay (mg), Az (mg)
1695356100, +3.45, +28.189,    +5.9, +1038.0,  +211.0,   +38.0
1695356700, +3.45, +28.189,    +4.3, +1030.0,  +208.0,   +48.0
1695357300, +3.45, +28.189,    +3.5, +1036.0,  +216.0,   +36.0
1695357900, +3.46, +28.173,    +2.3,  +988.0,  +192.0,   +67.0
1695358500, +3.46, +28.181,    +0.4, +1094.0,  +259.0,  -128.0
1695359100, +3.46, +28.181,    +0.0, +1089.0,  +260.0,  -120.0
1695359700, +3.46, +28.181,    -0.3, +1024.0,  +207.0,   +52.0
1695360300, +3.46, +28.181,    -0.2, +1036.0,  +216.0,   +38.0
1695360900, +3.46, +28.181,    -0.4, +1059.0,  +230.0,   -10.0
1695361500, +3.46, +28.099,    -0.2, +1086.0,  +256.0,  -104.0
1695362100, +3.47, +28.058,    -0.4, +1080.0,  +248.0,   -80.0
1695362700, +3.47, +28.115,    -0.4, +1031.0,  +211.0,   +44.0
