7530-458116
OS REV: 1.08 Sensor Cal: 1657263600 Averages: 30
Time (sec),  Bat (Volts),   T (deg C),  PAR (umol/(s m^2))  Ax (mg), Ay (mg), Az (mg)
1691903400, +3.49, +28.501,    +0.5, +1024.0,  +204.0,   +58.0
1691904000, +3.49, +28.501,    -0.1, +1024.0,  +206.0,   +60.0
1691904600, +3.49, +28.501,    -0.2, +1024.0,  +204.0,   +56.0
1691905200, +3.49, +28.484,    -0.3, +1024.0,  +204.0,   +60.0
1691905800, +3.49, +28.484,    -0.4, +1017.0,  +204.0,   +64.0
1691906400, +3.49, +28.476,    -0.4, +1022.0,  +207.0,   +56.0
