7530-458116
OS REV: 1.08 Sensor Cal: 1657263600 Averages: 30
Time (sec),  Bat (Volts),   T (deg C),  PAR (umol/(s m^2))  Ax (mg), Ay (mg), Az (mg)
1699027980, +3.47, +28.378,    -0.4, +1068.0,  +184.0,   +56.0
1699028580, +3.47, +28.370,    -0.4, +1112.0,  +224.0,   -88.0
1699029180, +3.48, +28.378,    -0.3, +1063.0,  +184.0,   +60.0
1699029780, +3.48, +28.370,    -0.1, +1052.0,  +176.0,   +86.0
1699030380, +3.47, +28.378,    +0.7, +1055.0,  +179.0,   +76.0
1699030980, +3.47, +28.378,    +1.8, +1056.0,  +177.0,   +76.0
1699031580, +3.47, +28.370,    +3.7, +1116.0,  +184.0,   -52.0
1699032180, +3.48, +28.378,    +4.0, +1126.0,  +220.0,  -112.0
1699032780, +3.48, +28.386,   +10.9, +1116.0,  +225.0,   -94.0
1699033380, +3.47, +28.386,   +11.0, +1075.0,  +192.0,   +36.0
1699033980, +3.47, +28.386,   +12.8, +1059.0,  +182.0,   +71.0
1699034580, +3.47, +28.386,   +14.5, +1096.0,  +208.0,   -16.0
