7530-458116
OS REV: 1.08 Sensor Cal: 1657263600 Averages: 30
Time (sec),  Bat (Volts),   T (deg C),  PAR (umol/(s m^2))  Ax (mg), Ay (mg), Az (mg)
1691907180, +3.49, +28.492,    -0.4, +1016.0,  +200.0,   +64.0
1691907780, +3.49, +28.501,    -0.3, +1022.0,  +206.0,   +60.0
1691908380, +3.49, +28.492,    -0.3, +1016.0,  +199.0,   +67.0
1691908980, +3.49, +28.484,    -0.3, +1031.0,  +208.0,   +51.0
1691909580, +3.49, +28.476,    -0.4, +1020.0,  +204.0,   +64.0
1691910180, +3.49, +28.476,    -0.4, +1022.0,  +204.0,   +62.0
1691910780, +3.49, +28.476,    -0.3, +1016.0,  +200.0,   +64.0
1691911380, +3.49, +28.468,    -0.5, +1020.0,  +204.0,   +60.0
1691911980, +3.49, +28.443,    -0.3, +1024.0,  +206.0,   +56.0
1691912580, +3.49, +28.452,    -0.4, +1020.0,  +204.0,   +62.0
1691913180, +3.49, +28.460,    -0.4, +1027.0,  +206.0,   +56.0
1691913780, +3.49, +28.468,    -0.4, +1020.0,  +206.0,   +62.0
