7530-458116
OS REV: 1.08 Sensor Cal: 1657263600 Averages: 30
Time (sec),  Bat (Volts),   T (deg C),  PAR (umol/(s m^2))  Ax (mg), Ay (mg), Az (mg)
1695821760, +3.43, +28.083,    -0.4, +1086.0,  +259.0,  -104.0
1695822360, +3.44, +28.074,    -0.3, +1020.0,  +208.0,   +56.0
1695822960, +3.44, +28.074,    -0.4, +1096.0,  +262.0,  -140.0
1695823560, +3.45, +28.066,    -0.5, +1039.0,  +216.0,   +35.0
1695824160, +3.45, +28.050,    -0.4, +1094.0,  +262.0,  -136.0
1695824760, +3.45, +28.066,    -0.4, +1086.0,  +260.0,  -104.0
1695825360, +3.45, +28.074,    -0.4,  +991.0,  +192.0,   +70.0
1695825960, +3.45, +28.066,    -0.4, +1011.0,  +204.0,   +64.0
