7530-458116
OS REV: 1.08 Sensor Cal: 1657263600 Averages: 30
Time (sec),  Bat (Volts),   T (deg C),  PAR (umol/(s m^2))  Ax (mg), Ay (mg), Az (mg)
1692728160, +3.48, +28.312,    +4.1, +1025.0,  +206.0,   +60.0
1692728760, +3.48, +28.312,    +5.3, +1022.0,  +204.0,   +62.0
1692729360, +3.48, +28.312,    +7.4, +1020.0,  +204.0,   +62.0
1692729960, +3.48, +28.312,    +6.4, +1016.0,  +204.0,   +64.0
1692730560, +3.48, +28.312,   +11.4, +1017.0,  +200.0,   +64.0
1692731160, +3.48, +28.312,   +10.2, +1020.0,  +200.0,   +64.0
1692731760, +3.48, +28.312,   +11.6, +1024.0,  +204.0,   +56.0
1692732360, +3.48, +28.312,   +14.7, +1016.0,  +200.0,   +67.0
1692732960, +3.48, +28.329,   +17.8, +1017.0,  +204.0,   +64.0
1692733560, +3.48, +28.320,   +18.4, +1024.0,  +206.0,   +56.0
1692734160, +3.48, +28.329,   +20.6, +1032.0,  +209.0,   +48.0
1692734760, +3.49, +28.345,   +23.1, +1048.0,  +220.0,   +16.0
