7530-458116
OS REV: 1.08 Sensor Cal: 1657263600 Averages: 30
Time (sec),  Bat (Volts),   T (deg C),  PAR (umol/(s m^2))  Ax (mg), Ay (mg), Az (mg)
1691973420, +3.46, +28.427,   +46.6, +1043.0,  +216.0,   +17.0
1691974020, +3.46, +28.435,   +48.2, +1040.0,  +216.0,   +22.0
1691974620, +3.46, +28.435,   +66.2, +1039.0,  +216.0,   +28.0
1691975220, +3.46, +28.427,   +86.9, +1039.0,  +216.0,   +28.0
1691975820, +3.46, +28.435,   +90.6, +1040.0,  +216.0,   +28.0
1691976420, +3.46, +28.427,   +80.8, +1038.0,  +216.0,   +28.0
1691977020, +3.46, +28.443,   +67.7, +1041.0,  +216.0,   +22.0
1691977620, +3.46, +28.435,   +57.4, +1040.0,  +216.0,   +24.0
1691978220, +3.46, +28.452,   +20.2, +1048.0,  +224.0,   +12.0
1691978820, +3.46, +28.452,   +55.5, +1040.0,  +216.0,   +24.0
1691979420, +3.46, +28.452,   +48.8, +1040.0,  +216.0,   +28.0
1691980020, +3.46, +28.452,   +15.7, +1036.0,  +212.0,   +40.0
1691980620, +3.46, +28.435,   +20.7, +1048.0,  +224.0,   +12.0
1691981220, +3.47, +28.452,   +42.4, +1046.0,  +220.0,   +24.0
1691981820, +3.47, +28.443,   +31.8, +1044.0,  +220.0,   +19.0
1691982420, +3.47, +28.443,   +37.3, +1046.0,  +220.0,   +19.0
1691983020, +3.47, +28.452,   +29.0, +1039.0,  +216.0,   +28.0
1691983620, +3.47, +28.443,   +24.3, +1046.0,  +220.0,   +20.0
