7530-458116
OS REV: 1.08 Sensor Cal: 1657263600 Averages: 30
Time (sec),  Bat (Volts),   T (deg C),  PAR (umol/(s m^2))  Ax (mg), Ay (mg), Az (mg)
1695340680, +3.47, +28.181,  +140.5, +1036.0,  +216.0,   +38.0
1695341280, +3.47, +28.173,   +89.5, +1040.0,  +216.0,   +28.0
1695341880, +3.48, +28.173,   +38.1, +1048.0,  +224.0,   +15.0
1695342480, +3.48, +28.165,  +131.6, +1031.0,  +209.0,   +46.0
1695343080, +3.48, +28.173,  +140.4, +1030.0,  +208.0,   +48.0
1695343680, +3.48, +28.173,   +46.8, +1040.0,  +216.0,   +32.0
1695344280, +3.48, +28.189,   +64.8, +1056.0,  +231.0,    +0.0
1695344880, +3.48, +28.181,  +135.5, +1024.0,  +208.0,   +54.0
1695345480, +3.48, +28.181,   +32.3, +1048.0,  +224.0,   +16.0
1695346080, +3.48, +28.189,   +66.9, +1028.0,  +209.0,   +48.0
1695346680, +3.48, +28.181,   +49.0, +1038.0,  +214.0,   +38.0
1695347280, +3.48, +28.197,   +40.4, +1048.0,  +224.0,    +7.0
