7530-458116
OS REV: 1.08 Sensor Cal: 1657263600 Averages: 30
Time (sec),  Bat (Volts),   T (deg C),  PAR (umol/(s m^2))  Ax (mg), Ay (mg), Az (mg)
1698816180, +3.48, +28.361,    +0.5, +1070.0,  +188.0,   +54.0
1698816780, +3.48, +28.386,    -0.2, +1107.0,  +220.0,   -64.0
1698817380, +3.48, +28.370,    -0.4, +1070.0,  +188.0,   +60.0
1698817980, +3.48, +28.353,    -0.4, +1079.0,  +196.0,   +30.0
1698818580, +3.48, +28.361,    -0.4, +1112.0,  +224.0,   -80.0
1698819180, +3.48, +28.370,    -0.4, +1087.0,  +200.0,    +8.0
1698819780, +3.48, +28.386,    -0.3, +1048.0,  +176.0,   +86.0
1698820380, +3.48, +28.402,    -0.5, +1075.0,  +193.0,   +40.0
1698820980, +3.48, +28.411,    -0.4, +1055.0,  +176.0,   +80.0
1698821580, +3.48, +28.411,    -0.3, +1055.0,  +176.0,   +78.0
1698822180, +3.48, +28.427,    -0.4, +1104.0,  +220.0,   -58.0
1698822780, +3.48, +28.419,    -0.5, +1080.0,  +195.0,   +32.0
1698823380, +3.48, +28.427,    -0.4, +1120.0,  +206.0,   -84.0
