7530-458116
OS REV: 1.08 Sensor Cal: 1657263600 Averages: 30
Time (sec),  Bat (Volts),   T (deg C),  PAR (umol/(s m^2))  Ax (mg), Ay (mg), Az (mg)
1699037580, +3.47, +28.386,   +27.2, +1080.0,  +195.0,   +30.0
1699038180, +3.47, +28.386,   +30.7, +1078.0,  +193.0,   +32.0
1699038780, +3.47, +28.386,   +39.1, +1075.0,  +192.0,   +35.0
1699039380, +3.47, +28.386,   +46.6, +1072.0,  +192.0,   +40.0
1699039980, +3.47, +28.394,   +55.7, +1139.0,  +207.0,   -97.0
1699040580, +3.47, +28.394,   +49.2, +1134.0,  +199.0,   -92.0
1699041180, +3.47, +28.402,   +86.5, +1136.0,  +200.0,  -100.0
1699041780, +3.47, +28.419,  +111.6, +1132.0,  +195.0,   -90.0
1699042380, +3.46, +28.411,   +57.1, +1142.0,  +214.0,  -105.0
1699042980, +3.46, +28.419,   +40.8, +1080.0,  +198.0,   +24.0
1699043580, +3.46, +28.427,   +69.1, +1004.0,  +160.0,   +96.0
1699044180, +3.46, +28.419,  +168.3, +1137.0,  +212.0,   -97.0
1699044780, +3.46, +28.427,  +132.8, +1080.0,  +198.0,   +24.0
