7530-458116
OS REV: 1.08 Sensor Cal: 1657263600 Averages: 30
Time (sec),  Bat (Volts),   T (deg C),  PAR (umol/(s m^2))  Ax (mg), Ay (mg), Az (mg)
1692181380, +3.47, +28.468,    -0.3, +1057.0,  +231.0,   -16.0
1692181980, +3.47, +28.460,    -0.3, +1048.0,  +224.0,   +12.0
1692182580, +3.47, +28.460,    -0.3, +1048.0,  +224.0,   +12.0
1692183180, +3.47, +28.452,    -0.4, +1046.0,  +224.0,   +16.0
1692183780, +3.47, +28.468,    -0.4, +1047.0,  +224.0,   +14.0
1692184380, +3.47, +28.468,    -0.4, +1048.0,  +224.0,    +8.0
1692184980, +3.47, +28.468,    -0.4, +1046.0,  +224.0,   +16.0
