7530-458116
OS REV: 1.08 Sensor Cal: 1657263600 Averages: 30
Time (sec),  Bat (Volts),   T (deg C),  PAR (umol/(s m^2))  Ax (mg), Ay (mg), Az (mg)
1696953000, +3.48, +28.140,    -0.4, +1068.0,  +192.0,   +48.0
1696953600, +3.48, +28.132,    -0.4, +1127.0,  +208.0,  -104.0
1696954200, +3.48, +28.124,    -0.4, +1056.0,  +182.0,   +67.0
1696954800, +3.48, +28.132,    -0.4, +1052.0,  +179.0,   +78.0
1696955400, +3.48, +28.124,    -0.5, +1118.0,  +227.0,  -106.0
1696956000, +3.48, +28.132,    -0.3, +1017.0,  +166.0,   +96.0
1696956600, +3.48, +28.124,    -0.3, +1036.0,  +168.0,   +96.0
1696957200, +3.48, +28.115,    -0.1, +1112.0,  +227.0,   -80.0
1696957800, +3.48, +28.124,    +0.4, +1116.0,  +228.0,  -104.0
