7530-458116
OS REV: 1.08 Sensor Cal: 1657263600 Averages: 30
Time (sec),  Bat (Volts),   T (deg C),  PAR (umol/(s m^2))  Ax (mg), Ay (mg), Az (mg)
1698003900, +3.49, +28.263,   +17.6, +1110.0,  +224.0,   -80.0
1698004500, +3.49, +28.263,   +24.7, +1112.0,  +227.0,   -80.0
1698005100, +3.49, +28.263,   +32.6, +1110.0,  +224.0,   -84.0
1698005700, +3.49, +28.255,   +26.9, +1107.0,  +224.0,   -64.0
1698006300, +3.49, +28.255,   +39.2, +1075.0,  +192.0,   +38.0
1698006900, +3.49, +28.255,   +88.1, +1110.0,  +224.0,   -80.0
1698007500, +3.49, +28.255,   +85.0, +1102.0,  +220.0,   -52.0
1698008100, +3.49, +28.263,   +49.9, +1103.0,  +220.0,   -56.0
1698008700, +3.49, +28.271,   +65.3, +1103.0,  +224.0,   -56.0
1698009300, +3.49, +28.271,   +48.6, +1072.0,  +192.0,   +44.0
1698009900, +3.49, +28.271,   +46.7, +1080.0,  +198.0,   +24.0
1698010500, +3.49, +28.279,   +68.2, +1091.0,  +208.0,    -8.0
1698011100, +3.49, +28.288,  +126.2, +1105.0,  +224.0,   -64.0
1698011700, +3.49, +28.296,  +135.0, +1104.0,  +224.0,   -56.0
1698012300, +3.49, +28.296,  +136.4, +1100.0,  +220.0,   -45.0
1698012900, +3.49, +28.312,   +60.9, +1075.0,  +196.0,   +28.0
