7530-458116
OS REV: 1.08 Sensor Cal: 1657263600 Averages: 30
Time (sec),  Bat (Volts),   T (deg C),  PAR (umol/(s m^2))  Ax (mg), Ay (mg), Az (mg)
1692142320, +3.47, +28.394,   +83.4, +1043.0,  +216.0,   +24.0
1692142920, +3.47, +28.288,   +83.4, +1024.0,  +204.0,   +60.0
1692143520, +3.48, +28.173,   +83.9, +1030.0,  +208.0,   +48.0
1692144120, +3.48, +28.173,   +83.7, +1022.0,  +206.0,   +56.0
1692144720, +3.48, +28.206,   +82.2, +1030.0,  +208.0,   +49.0
1692145320, +3.48, +28.263,   +80.9, +1040.0,  +220.0,   +24.0
