7530-458116
OS REV: 1.08 Sensor Cal: 1657263600 Averages: 30
Time (sec),  Bat (Volts),   T (deg C),  PAR (umol/(s m^2))  Ax (mg), Ay (mg), Az (mg)
1692073680, +3.47, +28.419,    +5.2, +1048.0,  +224.0,   +14.0
1692074280, +3.47, +28.435,    +3.2, +1048.0,  +220.0,   +14.0
1692074880, +3.47, +28.443,    +1.7, +1047.0,  +220.0,   +16.0
1692075480, +3.47, +28.443,    +0.4, +1041.0,  +216.0,   +28.0
1692076080, +3.47, +28.435,    +0.1, +1040.0,  +216.0,   +28.0
1692076680, +3.47, +28.443,    -0.2, +1052.0,  +224.0,    +4.0
1692077280, +3.47, +28.452,    -0.3, +1043.0,  +220.0,   +19.0
1692077880, +3.47, +28.452,    -0.4, +1036.0,  +209.0,   +40.0
1692078480, +3.47, +28.452,    -0.5, +1041.0,  +220.0,   +19.0
