7530-458116
OS REV: 1.08 Sensor Cal: 1657263600 Averages: 30
Time (sec),  Bat (Volts),   T (deg C),  PAR (umol/(s m^2))  Ax (mg), Ay (mg), Az (mg)
1695335220, +3.48, +28.148,   +62.7, +1054.0,  +224.0,    +0.0
1695335820, +3.48, +28.140,  +113.2, +1091.0,  +259.0,  -112.0
1695336420, +3.48, +28.124,  +122.7, +1086.0,  +259.0,  -108.0
1695337020, +3.48, +28.132,  +140.1, +1016.0,  +204.0,   +60.0
1695337620, +3.48, +28.107,   +59.3, +1049.0,  +224.0,   +12.0
1695338220, +3.48, +28.140,  +131.8, +1052.0,  +224.0,   +12.0
1695338820, +3.48, +28.148,  +148.5, +1055.0,  +227.0,    +0.0
1695339420, +3.49, +28.148,  +153.3, +1052.0,  +225.0,    +3.0
