7530-458116
OS REV: 1.08 Sensor Cal: 1657263600 Averages: 30
Time (sec),  Bat (Volts),   T (deg C),  PAR (umol/(s m^2))  Ax (mg), Ay (mg), Az (mg)
1694082060, +3.49, +28.206,    -0.4, +1011.0,  +200.0,   +64.0
1694082660, +3.49, +28.173,    -0.3, +1094.0,  +256.0,  -136.0
1694083260, +3.49, +28.197,    -0.4, +1016.0,  +207.0,   +56.0
1694083860, +3.49, +28.197,    -0.5, +1024.0,  +206.0,   +56.0
1694084460, +3.49, +28.197,    -0.4, +1027.0,  +208.0,   +48.0
1694085060, +3.49, +28.181,    -0.3, +1020.0,  +204.0,   +60.0
1694085660, +3.49, +28.181,    -0.4, +1091.0,  +262.0,  -128.0
1694086260, +3.49, +28.173,    -0.4, +1088.0,  +262.0,  -128.0
1694086860, +3.49, +28.181,    -0.3, +1091.0,  +259.0,  -128.0
