7530-458116
OS REV: 1.08 Sensor Cal: 1657263600 Averages: 30
Time (sec),  Bat (Volts),   T (deg C),  PAR (umol/(s m^2))  Ax (mg), Ay (mg), Az (mg)
1695422040, +3.42, +28.148,   +35.5, +1039.0,  +216.0,   +28.0
1695422640, +3.43, +28.132,   +16.3, +1095.0,  +240.0,  -120.0
1695423240, +3.44, +28.132,   +57.7, +1043.0,  +220.0,   +24.0
1695423840, +3.44, +28.148,   +48.8, +1094.0,  +212.0,   -73.0
1695424440, +3.44, +28.140,   +68.3, +1031.0,  +211.0,   +48.0
1695425040, +3.44, +28.132,   +21.3, +1031.0,  +216.0,   +48.0
1695425640, +3.45, +28.140,   +57.0, +1086.0,  +263.0,  -106.0
