7530-458116
OS REV: 1.08 Sensor Cal: 1657263600 Averages: 30
Time (sec),  Bat (Volts),   T (deg C),  PAR (umol/(s m^2))  Ax (mg), Ay (mg), Az (mg)
1692889320, +3.53, +28.329,    -0.3,  +998.0,  +192.0,   +76.0
1692889920, +3.53, +28.329,    -0.4,  +982.0,  +192.0,   +71.0
1692890520, +3.52, +28.329,    -0.5,  +984.0,  +191.0,   +71.0
1692891120, +3.52, +28.329,    -0.4, +1100.0,  +233.0,   -97.0
1692891720, +3.52, +28.329,    -0.3,  +979.0,  +191.0,   +68.0
1692892320, +3.52, +28.329,    -0.4, +1068.0,  +240.0,   -40.0
