7530-458116
OS REV: 1.08 Sensor Cal: 1657263600 Averages: 30
Time (sec),  Bat (Volts),   T (deg C),  PAR (umol/(s m^2))  Ax (mg), Ay (mg), Az (mg)
1692409500, +3.45, +28.476,   +68.8, +1052.0,  +225.0,    +0.0
1692410100, +3.45, +28.476,   +45.5, +1048.0,  +224.0,   +12.0
1692410700, +3.45, +28.476,   +30.9, +1046.0,  +216.0,   +24.0
1692411300, +3.45, +28.484,   +67.1, +1047.0,  +217.0,   +22.0
1692411900, +3.45, +28.476,   +24.9, +1048.0,  +224.0,    +8.0
1692412500, +3.46, +28.476,   +42.6, +1048.0,  +224.0,    +7.0
1692413100, +3.46, +28.484,   +37.0, +1046.0,  +220.0,   +17.0
1692413700, +3.46, +28.476,   +33.9, +1048.0,  +224.0,   +12.0
1692414300, +3.46, +28.468,   +22.8, +1048.0,  +224.0,   +14.0
1692414900, +3.46, +28.476,   +55.2, +1048.0,  +224.0,   +14.0
1692415500, +3.46, +28.476,   +56.9, +1043.0,  +220.0,   +16.0
1692416100, +3.46, +28.468,   +49.4, +1046.0,  +220.0,   +16.0
1692416700, +3.46, +28.484,   +23.6, +1040.0,  +216.0,   +32.0
1692417300, +3.46, +28.484,   +16.4, +1052.0,  +224.0,    +0.0
1692417900, +3.47, +28.484,   +17.0, +1048.0,  +224.0,    +8.0
1692418500, +3.47, +28.492,   +16.6, +1043.0,  +220.0,   +24.0
1692419100, +3.47, +28.484,   +13.0, +1048.0,  +224.0,    +7.0
1692419700, +3.47, +28.492,    +5.0, +1052.0,  +230.0,    -8.0
1692420300, +3.47, +28.484,    +4.1, +1048.0,  +224.0,   +14.0
1692420900, +3.47, +28.492,    +3.0, +1048.0,  +224.0,    +8.0
1692421500, +3.47, +28.468,    +1.5, +1048.0,  +224.0,    +8.0
1692422100, +3.47, +28.476,    +0.5, +1048.0,  +224.0,   +14.0
1692422700, +3.47, +28.460,    -0.2, +1038.0,  +214.0,   +38.0
1692423300, +3.47, +28.460,    -0.4, +1046.0,  +220.0,   +20.0
1692423900, +3.47, +28.460,    -0.2, +1055.0,  +230.0,   -12.0
1692424500, +3.47, +28.484,    -0.4, +1048.0,  +224.0,    +6.0
