7530-458116
OS REV: 1.08 Sensor Cal: 1657263600 Averages: 30
Time (sec),  Bat (Volts),   T (deg C),  PAR (umol/(s m^2))  Ax (mg), Ay (mg), Az (mg)
1695808500, +3.43, +28.083,    -0.4, +1009.0,  +204.0,   +64.0
1695809100, +3.44, +28.091,    -0.3, +1011.0,  +204.0,   +67.0
1695809700, +3.44, +28.066,    -0.5, +1011.0,  +200.0,   +64.0
1695810300, +3.45, +28.074,    -0.4, +1097.0,  +252.0,  -136.0
1695810900, +3.45, +28.083,    -0.3, +1030.0,  +209.0,   +48.0
1695811500, +3.45, +28.083,    -0.3, +1020.0,  +208.0,   +60.0
1695812100, +3.45, +28.083,    -0.4, +1006.0,  +200.0,   +67.0
1695812700, +3.45, +28.074,    -0.3, +1100.0,  +256.0,  -144.0
