7530-458116
OS REV: 1.08 Sensor Cal: 1657263600 Averages: 30
Time (sec),  Bat (Volts),   T (deg C),  PAR (umol/(s m^2))  Ax (mg), Ay (mg), Az (mg)
1692659820, +3.45, +28.345,  +115.3, +1047.0,  +220.0,   +22.0
1692660420, +3.45, +28.337,  +113.3, +1046.0,  +216.0,   +22.0
1692661020, +3.45, +28.329,   +68.3, +1048.0,  +224.0,   +12.0
1692661620, +3.46, +28.337,   +90.3, +1048.0,  +224.0,   +14.0
1692662220, +3.46, +28.353,  +126.7, +1048.0,  +224.0,   +12.0
1692662820, +3.46, +28.353,  +124.7, +1056.0,  +230.0,    -8.0
1692663420, +3.46, +28.361,  +138.1, +1044.0,  +220.0,   +17.0
1692664020, +3.46, +28.361,   +63.9, +1048.0,  +220.0,   +19.0
1692664620, +3.46, +28.370,  +123.0, +1048.0,  +224.0,   +12.0
1692665220, +3.46, +28.353,  +117.2, +1043.0,  +224.0,   +20.0
1692665820, +3.46, +28.361,   +40.0, +1055.0,  +230.0,    -8.0
