7530-458116
OS REV: 1.08 Sensor Cal: 1657263600 Averages: 30
Time (sec),  Bat (Volts),   T (deg C),  PAR (umol/(s m^2))  Ax (mg), Ay (mg), Az (mg)
1698100620, +3.49, +28.288,  +126.6, +1102.0,  +220.0,   -52.0
1698101220, +3.49, +28.312,   +68.2, +1095.0,  +211.0,   -20.0
1698101820, +3.49, +28.353,   +85.3, +1073.0,  +195.0,   +35.0
1698102420, +3.49, +28.337,  +166.1, +1096.0,  +211.0,   -25.0
1698103020, +3.49, +28.337,  +128.6, +1107.0,  +224.0,   -64.0
1698103620, +3.49, +28.361,  +171.1, +1104.0,  +220.0,   -52.0
1698104220, +3.49, +28.386,  +160.3, +1059.0,  +182.0,   +70.0
1698104820, +3.49, +28.394,  +158.9, +1103.0,  +220.0,   -48.0
1698105420, +3.49, +28.394,  +157.1, +1072.0,  +195.0,   +40.0
1698106020, +3.49, +28.394,  +131.5, +1095.0,  +214.0,   -25.0
1698106620, +3.49, +28.378,  +101.3, +1078.0,  +198.0,   +24.0
1698107220, +3.49, +28.419,  +138.9, +1075.0,  +192.0,   +32.0
1698107820, +3.49, +28.452,  +147.3, +1120.0,  +224.0,  -104.0
1698108420, +3.49, +28.443,  +123.1, +1073.0,  +195.0,   +32.0
