7530-458116
OS REV: 1.08 Sensor Cal: 1657263600 Averages: 30
Time (sec),  Bat (Volts),   T (deg C),  PAR (umol/(s m^2))  Ax (mg), Ay (mg), Az (mg)
1701966600, +3.48, +28.721,    -0.3, +1056.0,  +180.0,   +80.0
1701967200, +3.48, +28.411,    -0.1, +1031.0,  +166.0,  +112.0
1701967800, +3.48, +28.197,    +0.9, +1048.0,  +176.0,   +96.0
1701968400, +3.48, +28.370,    +2.6, +1103.0,  +220.0,   -36.0
1701969000, +3.48, +28.378,    +3.6, +1113.0,  +224.0,   -77.0
1701969600, +3.48, +28.460,    +4.6, +1063.0,  +184.0,   +78.0
