7530-458116
OS REV: 1.08 Sensor Cal: 1657263600 Averages: 30
Time (sec),  Bat (Volts),   T (deg C),  PAR (umol/(s m^2))  Ax (mg), Ay (mg), Az (mg)
1698866880, +3.47, +28.378,   +55.3, +1080.0,  +193.0,   +30.0
1698867480, +3.47, +28.394,   +42.7, +1057.0,  +184.0,   +71.0
1698868080, +3.47, +28.402,   +24.2, +1068.0,  +192.0,   +52.0
1698868680, +3.47, +28.394,   +68.1, +1062.0,  +192.0,   +64.0
1698869280, +3.47, +28.378,   +53.9, +1051.0,  +176.0,   +81.0
1698869880, +3.47, +28.353,   +55.7, +1036.0,  +164.0,   +99.0
1698870480, +3.47, +28.337,   +55.3, +1039.0,  +172.0,   +92.0
1698871080, +3.47, +28.353,   +46.0, +1049.0,  +176.0,   +80.0
1698871680, +3.47, +28.370,   +79.0, +1048.0,  +176.0,   +83.0
1698872280, +3.47, +28.378,   +61.7, +1063.0,  +184.0,   +64.0
1698872880, +3.47, +28.370,   +62.1, +1064.0,  +188.0,   +56.0
1698873480, +3.47, +28.370,   +68.7, +1059.0,  +184.0,   +70.0
1698874080, +3.47, +28.378,   +57.3, +1055.0,  +177.0,   +76.0
1698874680, +3.47, +28.386,   +53.2, +1041.0,  +176.0,   +92.0
1698875280, +3.47, +28.361,   +75.3, +1056.0,  +179.0,   +72.0
1698875880, +3.47, +28.370,   +58.2, +1056.0,  +180.0,   +71.0
1698876480, +3.47, +28.386,   +53.8, +1089.0,  +206.0,    +0.0
