7530-458116
OS REV: 1.08 Sensor Cal: 1657263600 Averages: 30
Time (sec),  Bat (Volts),   T (deg C),  PAR (umol/(s m^2))  Ax (mg), Ay (mg), Az (mg)
1693353600, +3.45, +27.803,   +30.3, +1024.0,  +207.0,   +54.0
1693354200, +3.45, +27.754,   +31.9, +1039.0,  +216.0,   +32.0
1693354800, +3.45, +27.729,   +38.7, +1039.0,  +214.0,   +32.0
1693355400, +3.45, +27.713,   +53.0, +1036.0,  +212.0,   +38.0
1693356000, +3.46, +27.713,   +66.2, +1047.0,  +224.0,   +12.0
1693356600, +3.46, +27.680,   +24.6, +1040.0,  +216.0,   +30.0
1693357200, +3.46, +27.614,   +32.3, +1031.0,  +209.0,   +44.0
1693357800, +3.46, +27.688,   +29.9, +1048.0,  +224.0,   +16.0
